#  E (eV)   dos(E)     Int dos(E) EFermi =   10.294 eV
  -5.000  0.0000E+00  0.2000E+02
  -4.990  0.0000E+00  0.2000E+02
  -4.980  0.0000E+00  0.2000E+02
  -4.970  0.0000E+00  0.2000E+02
  -4.960  0.0000E+00  0.2000E+02
  -4.950  0.0000E+00  0.2000E+02
  -4.940  0.0000E+00  0.2000E+02
  -4.930  0.0000E+00  0.2000E+02
  -4.920  0.0000E+00  0.2000E+02
  -4.910  0.0000E+00  0.2000E+02
  -4.900  0.0000E+00  0.2000E+02
  -4.890  0.0000E+00  0.2000E+02
  -4.880  0.0000E+00  0.2000E+02
  -4.870  0.0000E+00  0.2000E+02
  -4.860  0.0000E+00  0.2000E+02
  -4.850  0.0000E+00  0.2000E+02
  -4.840  0.0000E+00  0.2000E+02
  -4.830  0.0000E+00  0.2000E+02
  -4.820  0.0000E+00  0.2000E+02
  -4.810  0.0000E+00  0.2000E+02
  -4.800  0.0000E+00  0.2000E+02
  -4.790  0.0000E+00  0.2000E+02
  -4.780  0.0000E+00  0.2000E+02
  -4.770  0.0000E+00  0.2000E+02
  -4.760  0.0000E+00  0.2000E+02
  -4.750  0.0000E+00  0.2000E+02
  -4.740  0.0000E+00  0.2000E+02
  -4.730  0.0000E+00  0.2000E+02
  -4.720  0.0000E+00  0.2000E+02
  -4.710  0.0000E+00  0.2000E+02
  -4.700  0.0000E+00  0.2000E+02
  -4.690  0.0000E+00  0.2000E+02
  -4.680  0.0000E+00  0.2000E+02
  -4.670  0.0000E+00  0.2000E+02
  -4.660  0.0000E+00  0.2000E+02
  -4.650  0.0000E+00  0.2000E+02
  -4.640  0.0000E+00  0.2000E+02
  -4.630  0.0000E+00  0.2000E+02
  -4.620  0.0000E+00  0.2000E+02
  -4.610  0.0000E+00  0.2000E+02
  -4.600  0.0000E+00  0.2000E+02
  -4.590  0.0000E+00  0.2000E+02
  -4.580  0.0000E+00  0.2000E+02
  -4.570  0.0000E+00  0.2000E+02
  -4.560  0.0000E+00  0.2000E+02
  -4.550  0.0000E+00  0.2000E+02
  -4.540  0.0000E+00  0.2000E+02
  -4.530  0.0000E+00  0.2000E+02
  -4.520  0.0000E+00  0.2000E+02
  -4.510  0.0000E+00  0.2000E+02
  -4.500  0.0000E+00  0.2000E+02
  -4.490  0.0000E+00  0.2000E+02
  -4.480  0.0000E+00  0.2000E+02
  -4.470  0.0000E+00  0.2000E+02
  -4.460  0.0000E+00  0.2000E+02
  -4.450  0.0000E+00  0.2000E+02
  -4.440  0.0000E+00  0.2000E+02
  -4.430  0.0000E+00  0.2000E+02
  -4.420  0.0000E+00  0.2000E+02
  -4.410  0.0000E+00  0.2000E+02
  -4.400  0.0000E+00  0.2000E+02
  -4.390  0.0000E+00  0.2000E+02
  -4.380  0.0000E+00  0.2000E+02
  -4.370  0.0000E+00  0.2000E+02
  -4.360  0.0000E+00  0.2000E+02
  -4.350  0.0000E+00  0.2000E+02
  -4.340  0.0000E+00  0.2000E+02
  -4.330  0.0000E+00  0.2000E+02
  -4.320  0.0000E+00  0.2000E+02
  -4.310  0.0000E+00  0.2000E+02
  -4.300  0.0000E+00  0.2000E+02
  -4.290  0.0000E+00  0.2000E+02
  -4.280  0.0000E+00  0.2000E+02
  -4.270  0.0000E+00  0.2000E+02
  -4.260  0.0000E+00  0.2000E+02
  -4.250  0.0000E+00  0.2000E+02
  -4.240  0.0000E+00  0.2000E+02
  -4.230  0.0000E+00  0.2000E+02
  -4.220  0.0000E+00  0.2000E+02
  -4.210  0.0000E+00  0.2000E+02
  -4.200  0.0000E+00  0.2000E+02
  -4.190  0.0000E+00  0.2000E+02
  -4.180  0.0000E+00  0.2000E+02
  -4.170  0.0000E+00  0.2000E+02
  -4.160  0.0000E+00  0.2000E+02
  -4.150  0.0000E+00  0.2000E+02
  -4.140  0.0000E+00  0.2000E+02
  -4.130  0.0000E+00  0.2000E+02
  -4.120  0.0000E+00  0.2000E+02
  -4.110  0.0000E+00  0.2000E+02
  -4.100  0.0000E+00  0.2000E+02
  -4.090  0.0000E+00  0.2000E+02
  -4.080  0.0000E+00  0.2000E+02
  -4.070  0.0000E+00  0.2000E+02
  -4.060  0.0000E+00  0.2000E+02
  -4.050  0.0000E+00  0.2000E+02
  -4.040  0.0000E+00  0.2000E+02
  -4.030  0.0000E+00  0.2000E+02
  -4.020  0.0000E+00  0.2000E+02
  -4.010  0.0000E+00  0.2000E+02
  -4.000  0.0000E+00  0.2000E+02
  -3.990  0.0000E+00  0.2000E+02
  -3.980  0.0000E+00  0.2000E+02
  -3.970  0.0000E+00  0.2000E+02
  -3.960  0.0000E+00  0.2000E+02
  -3.950  0.0000E+00  0.2000E+02
  -3.940  0.0000E+00  0.2000E+02
  -3.930  0.0000E+00  0.2000E+02
  -3.920  0.0000E+00  0.2000E+02
  -3.910  0.0000E+00  0.2000E+02
  -3.900  0.0000E+00  0.2000E+02
  -3.890  0.0000E+00  0.2000E+02
  -3.880  0.0000E+00  0.2000E+02
  -3.870  0.0000E+00  0.2000E+02
  -3.860  0.0000E+00  0.2000E+02
  -3.850  0.0000E+00  0.2000E+02
  -3.840  0.0000E+00  0.2000E+02
  -3.830  0.0000E+00  0.2000E+02
  -3.820  0.0000E+00  0.2000E+02
  -3.810  0.0000E+00  0.2000E+02
  -3.800  0.0000E+00  0.2000E+02
  -3.790  0.0000E+00  0.2000E+02
  -3.780  0.0000E+00  0.2000E+02
  -3.770  0.0000E+00  0.2000E+02
  -3.760  0.0000E+00  0.2000E+02
  -3.750  0.0000E+00  0.2000E+02
  -3.740  0.0000E+00  0.2000E+02
  -3.730  0.0000E+00  0.2000E+02
  -3.720  0.0000E+00  0.2000E+02
  -3.710  0.0000E+00  0.2000E+02
  -3.700  0.0000E+00  0.2000E+02
  -3.690  0.0000E+00  0.2000E+02
  -3.680  0.0000E+00  0.2000E+02
  -3.670  0.0000E+00  0.2000E+02
  -3.660  0.0000E+00  0.2000E+02
  -3.650  0.0000E+00  0.2000E+02
  -3.640  0.0000E+00  0.2000E+02
  -3.630  0.0000E+00  0.2000E+02
  -3.620  0.0000E+00  0.2000E+02
  -3.610  0.0000E+00  0.2000E+02
  -3.600  0.0000E+00  0.2000E+02
  -3.590  0.0000E+00  0.2000E+02
  -3.580  0.0000E+00  0.2000E+02
  -3.570  0.0000E+00  0.2000E+02
  -3.560  0.0000E+00  0.2000E+02
  -3.550  0.0000E+00  0.2000E+02
  -3.540  0.0000E+00  0.2000E+02
  -3.530  0.0000E+00  0.2000E+02
  -3.520  0.0000E+00  0.2000E+02
  -3.510  0.0000E+00  0.2000E+02
  -3.500  0.0000E+00  0.2000E+02
  -3.490  0.0000E+00  0.2000E+02
  -3.480  0.0000E+00  0.2000E+02
  -3.470  0.0000E+00  0.2000E+02
  -3.460  0.0000E+00  0.2000E+02
  -3.450  0.0000E+00  0.2000E+02
  -3.440  0.0000E+00  0.2000E+02
  -3.430  0.0000E+00  0.2000E+02
  -3.420  0.0000E+00  0.2000E+02
  -3.410  0.0000E+00  0.2000E+02
  -3.400  0.0000E+00  0.2000E+02
  -3.390  0.0000E+00  0.2000E+02
  -3.380  0.0000E+00  0.2000E+02
  -3.370  0.0000E+00  0.2000E+02
  -3.360  0.0000E+00  0.2000E+02
  -3.350  0.0000E+00  0.2000E+02
  -3.340  0.0000E+00  0.2000E+02
  -3.330  0.0000E+00  0.2000E+02
  -3.320  0.0000E+00  0.2000E+02
  -3.310  0.0000E+00  0.2000E+02
  -3.300  0.0000E+00  0.2000E+02
  -3.290  0.0000E+00  0.2000E+02
  -3.280  0.0000E+00  0.2000E+02
  -3.270  0.0000E+00  0.2000E+02
  -3.260  0.0000E+00  0.2000E+02
  -3.250  0.0000E+00  0.2000E+02
  -3.240  0.0000E+00  0.2000E+02
  -3.230  0.0000E+00  0.2000E+02
  -3.220  0.0000E+00  0.2000E+02
  -3.210  0.0000E+00  0.2000E+02
  -3.200  0.0000E+00  0.2000E+02
  -3.190  0.0000E+00  0.2000E+02
  -3.180  0.0000E+00  0.2000E+02
  -3.170  0.0000E+00  0.2000E+02
  -3.160  0.0000E+00  0.2000E+02
  -3.150  0.0000E+00  0.2000E+02
  -3.140  0.0000E+00  0.2000E+02
  -3.130  0.0000E+00  0.2000E+02
  -3.120  0.0000E+00  0.2000E+02
  -3.110  0.0000E+00  0.2000E+02
  -3.100  0.0000E+00  0.2000E+02
  -3.090  0.0000E+00  0.2000E+02
  -3.080  0.0000E+00  0.2000E+02
  -3.070  0.0000E+00  0.2000E+02
  -3.060  0.0000E+00  0.2000E+02
  -3.050  0.0000E+00  0.2000E+02
  -3.040  0.0000E+00  0.2000E+02
  -3.030  0.0000E+00  0.2000E+02
  -3.020  0.0000E+00  0.2000E+02
  -3.010  0.0000E+00  0.2000E+02
  -3.000  0.0000E+00  0.2000E+02
  -2.990  0.0000E+00  0.2000E+02
  -2.980  0.0000E+00  0.2000E+02
  -2.970  0.0000E+00  0.2000E+02
  -2.960  0.0000E+00  0.2000E+02
  -2.950  0.0000E+00  0.2000E+02
  -2.940  0.0000E+00  0.2000E+02
  -2.930  0.0000E+00  0.2000E+02
  -2.920  0.0000E+00  0.2000E+02
  -2.910  0.0000E+00  0.2000E+02
  -2.900  0.0000E+00  0.2000E+02
  -2.890  0.0000E+00  0.2000E+02
  -2.880  0.0000E+00  0.2000E+02
  -2.870  0.0000E+00  0.2000E+02
  -2.860  0.0000E+00  0.2000E+02
  -2.850  0.0000E+00  0.2000E+02
  -2.840  0.0000E+00  0.2000E+02
  -2.830  0.0000E+00  0.2000E+02
  -2.820  0.0000E+00  0.2000E+02
  -2.810  0.0000E+00  0.2000E+02
  -2.800  0.0000E+00  0.2000E+02
  -2.790  0.0000E+00  0.2000E+02
  -2.780  0.0000E+00  0.2000E+02
  -2.770  0.0000E+00  0.2000E+02
  -2.760  0.0000E+00  0.2000E+02
  -2.750  0.0000E+00  0.2000E+02
  -2.740  0.0000E+00  0.2000E+02
  -2.730  0.0000E+00  0.2000E+02
  -2.720  0.0000E+00  0.2000E+02
  -2.710  0.0000E+00  0.2000E+02
  -2.700  0.0000E+00  0.2000E+02
  -2.690  0.0000E+00  0.2000E+02
  -2.680  0.0000E+00  0.2000E+02
  -2.670  0.0000E+00  0.2000E+02
  -2.660  0.0000E+00  0.2000E+02
  -2.650  0.0000E+00  0.2000E+02
  -2.640  0.0000E+00  0.2000E+02
  -2.630  0.0000E+00  0.2000E+02
  -2.620  0.0000E+00  0.2000E+02
  -2.610  0.0000E+00  0.2000E+02
  -2.600  0.0000E+00  0.2000E+02
  -2.590  0.0000E+00  0.2000E+02
  -2.580  0.0000E+00  0.2000E+02
  -2.570  0.0000E+00  0.2000E+02
  -2.560  0.3247E-01  0.2000E+02
  -2.550  0.6600E-01  0.2000E+02
  -2.540  0.8789E-01  0.2000E+02
  -2.530  0.1020E+00  0.2000E+02
  -2.520  0.1165E+00  0.2000E+02
  -2.510  0.1334E+00  0.2000E+02
  -2.500  0.1425E+00  0.2001E+02
  -2.490  0.1498E+00  0.2001E+02
  -2.480  0.1641E+00  0.2001E+02
  -2.470  0.1745E+00  0.2001E+02
  -2.460  0.1811E+00  0.2001E+02
  -2.450  0.1887E+00  0.2001E+02
  -2.440  0.1980E+00  0.2002E+02
  -2.430  0.2102E+00  0.2002E+02
  -2.420  0.2159E+00  0.2002E+02
  -2.410  0.2214E+00  0.2002E+02
  -2.400  0.2289E+00  0.2003E+02
  -2.390  0.2363E+00  0.2003E+02
  -2.380  0.2457E+00  0.2003E+02
  -2.370  0.2541E+00  0.2003E+02
  -2.360  0.2586E+00  0.2003E+02
  -2.350  0.2637E+00  0.2004E+02
  -2.340  0.2705E+00  0.2004E+02
  -2.330  0.2778E+00  0.2004E+02
  -2.320  0.2852E+00  0.2005E+02
  -2.310  0.2935E+00  0.2005E+02
  -2.300  0.2982E+00  0.2005E+02
  -2.290  0.3030E+00  0.2005E+02
  -2.280  0.3078E+00  0.2006E+02
  -2.270  0.3145E+00  0.2006E+02
  -2.260  0.3213E+00  0.2006E+02
  -2.250  0.3283E+00  0.2007E+02
  -2.240  0.3355E+00  0.2007E+02
  -2.230  0.3402E+00  0.2007E+02
  -2.220  0.3450E+00  0.2008E+02
  -2.210  0.3501E+00  0.2008E+02
  -2.200  0.3551E+00  0.2008E+02
  -2.190  0.3612E+00  0.2009E+02
  -2.180  0.3679E+00  0.2009E+02
  -2.170  0.3747E+00  0.2010E+02
  -2.160  0.3811E+00  0.2010E+02
  -2.150  0.3852E+00  0.2010E+02
  -2.140  0.3901E+00  0.2011E+02
  -2.130  0.3953E+00  0.2011E+02
  -2.120  0.4005E+00  0.2011E+02
  -2.110  0.4057E+00  0.2012E+02
  -2.100  0.4116E+00  0.2012E+02
  -2.090  0.4183E+00  0.2013E+02
  -2.080  0.4251E+00  0.2013E+02
  -2.070  0.4303E+00  0.2014E+02
  -2.060  0.4344E+00  0.2014E+02
  -2.050  0.4392E+00  0.2014E+02
  -2.040  0.4446E+00  0.2015E+02
  -2.030  0.4500E+00  0.2015E+02
  -2.020  0.4555E+00  0.2016E+02
  -2.010  0.4610E+00  0.2016E+02
  -2.000  0.4671E+00  0.2017E+02
  -1.990  0.4739E+00  0.2017E+02
  -1.980  0.4797E+00  0.2018E+02
  -1.970  0.4845E+00  0.2018E+02
  -1.960  0.4891E+00  0.2019E+02
  -1.950  0.4939E+00  0.2019E+02
  -1.940  0.4995E+00  0.2020E+02
  -1.930  0.5052E+00  0.2020E+02
  -1.920  0.5111E+00  0.2021E+02
  -1.910  0.5170E+00  0.2021E+02
  -1.900  0.5229E+00  0.2022E+02
  -1.890  0.5297E+00  0.2022E+02
  -1.880  0.5354E+00  0.2023E+02
  -1.870  0.5404E+00  0.2023E+02
  -1.860  0.5457E+00  0.2024E+02
  -1.850  0.5509E+00  0.2024E+02
  -1.840  0.5562E+00  0.2025E+02
  -1.830  0.5623E+00  0.2025E+02
  -1.820  0.5686E+00  0.2026E+02
  -1.810  0.5750E+00  0.2027E+02
  -1.800  0.5813E+00  0.2027E+02
  -1.790  0.5878E+00  0.2028E+02
  -1.780  0.5941E+00  0.2028E+02
  -1.770  0.5998E+00  0.2029E+02
  -1.760  0.6056E+00  0.2030E+02
  -1.750  0.6115E+00  0.2030E+02
  -1.740  0.6173E+00  0.2031E+02
  -1.730  0.6233E+00  0.2031E+02
  -1.720  0.6300E+00  0.2032E+02
  -1.710  0.6370E+00  0.2033E+02
  -1.700  0.6441E+00  0.2033E+02
  -1.690  0.6512E+00  0.2034E+02
  -1.680  0.6583E+00  0.2035E+02
  -1.670  0.6645E+00  0.2035E+02
  -1.660  0.6711E+00  0.2036E+02
  -1.650  0.6779E+00  0.2037E+02
  -1.640  0.6846E+00  0.2037E+02
  -1.630  0.6914E+00  0.2038E+02
  -1.620  0.6982E+00  0.2039E+02
  -1.610  0.7057E+00  0.2039E+02
  -1.600  0.7139E+00  0.2040E+02
  -1.590  0.7221E+00  0.2041E+02
  -1.580  0.7303E+00  0.2041E+02
  -1.570  0.7382E+00  0.2042E+02
  -1.560  0.7452E+00  0.2043E+02
  -1.550  0.7533E+00  0.2044E+02
  -1.540  0.7614E+00  0.2044E+02
  -1.530  0.7695E+00  0.2045E+02
  -1.520  0.7777E+00  0.2046E+02
  -1.510  0.7858E+00  0.2047E+02
  -1.500  0.7950E+00  0.2048E+02
  -1.490  0.8049E+00  0.2048E+02
  -1.480  0.8148E+00  0.2049E+02
  -1.470  0.8247E+00  0.2050E+02
  -1.460  0.8341E+00  0.2051E+02
  -1.450  0.8437E+00  0.2052E+02
  -1.440  0.8539E+00  0.2053E+02
  -1.430  0.8641E+00  0.2053E+02
  -1.420  0.8745E+00  0.2054E+02
  -1.410  0.8847E+00  0.2055E+02
  -1.400  0.8965E+00  0.2056E+02
  -1.390  0.9094E+00  0.2057E+02
  -1.380  0.9219E+00  0.2058E+02
  -1.370  0.9346E+00  0.2059E+02
  -1.360  0.9485E+00  0.2060E+02
  -1.350  0.9625E+00  0.2061E+02
  -1.340  0.9767E+00  0.2062E+02
  -1.330  0.9907E+00  0.2063E+02
  -1.320  0.1007E+01  0.2064E+02
  -1.310  0.1026E+01  0.2065E+02
  -1.300  0.1044E+01  0.2066E+02
  -1.290  0.1067E+01  0.2067E+02
  -1.280  0.1094E+01  0.2068E+02
  -1.270  0.1141E+01  0.2069E+02
  -1.260  0.1156E+01  0.2070E+02
  -1.250  0.1161E+01  0.2071E+02
  -1.240  0.1172E+01  0.2072E+02
  -1.230  0.1180E+01  0.2074E+02
  -1.220  0.1191E+01  0.2075E+02
  -1.210  0.1200E+01  0.2076E+02
  -1.200  0.1210E+01  0.2077E+02
  -1.190  0.1221E+01  0.2078E+02
  -1.180  0.1231E+01  0.2080E+02
  -1.170  0.1241E+01  0.2081E+02
  -1.160  0.1253E+01  0.2082E+02
  -1.150  0.1265E+01  0.2083E+02
  -1.140  0.1277E+01  0.2085E+02
  -1.130  0.1289E+01  0.2086E+02
  -1.120  0.1303E+01  0.2087E+02
  -1.110  0.1317E+01  0.2089E+02
  -1.100  0.1332E+01  0.2090E+02
  -1.090  0.1347E+01  0.2091E+02
  -1.080  0.1363E+01  0.2093E+02
  -1.070  0.1380E+01  0.2094E+02
  -1.060  0.1399E+01  0.2095E+02
  -1.050  0.1418E+01  0.2097E+02
  -1.040  0.1437E+01  0.2098E+02
  -1.030  0.1459E+01  0.2100E+02
  -1.020  0.1481E+01  0.2101E+02
  -1.010  0.1506E+01  0.2103E+02
  -1.000  0.1532E+01  0.2104E+02
  -0.990  0.1560E+01  0.2106E+02
  -0.980  0.1592E+01  0.2107E+02
  -0.970  0.1626E+01  0.2109E+02
  -0.960  0.1666E+01  0.2110E+02
  -0.950  0.1711E+01  0.2112E+02
  -0.940  0.1765E+01  0.2114E+02
  -0.930  0.1836E+01  0.2116E+02
  -0.920  0.1948E+01  0.2118E+02
  -0.910  0.2005E+01  0.2120E+02
  -0.900  0.2037E+01  0.2122E+02
  -0.890  0.2035E+01  0.2124E+02
  -0.880  0.2029E+01  0.2126E+02
  -0.870  0.2064E+01  0.2128E+02
  -0.860  0.2068E+01  0.2130E+02
  -0.850  0.2081E+01  0.2132E+02
  -0.840  0.2085E+01  0.2134E+02
  -0.830  0.2117E+01  0.2136E+02
  -0.820  0.2134E+01  0.2138E+02
  -0.810  0.2140E+01  0.2140E+02
  -0.800  0.2159E+01  0.2142E+02
  -0.790  0.2180E+01  0.2145E+02
  -0.780  0.2228E+01  0.2147E+02
  -0.770  0.2255E+01  0.2149E+02
  -0.760  0.2283E+01  0.2151E+02
  -0.750  0.2324E+01  0.2154E+02
  -0.740  0.2391E+01  0.2156E+02
  -0.730  0.2453E+01  0.2158E+02
  -0.720  0.2531E+01  0.2161E+02
  -0.710  0.2713E+01  0.2163E+02
  -0.700  0.2846E+01  0.2166E+02
  -0.690  0.2807E+01  0.2169E+02
  -0.680  0.2835E+01  0.2172E+02
  -0.670  0.2834E+01  0.2175E+02
  -0.660  0.2806E+01  0.2178E+02
  -0.650  0.2455E+01  0.2180E+02
  -0.640  0.2264E+01  0.2183E+02
  -0.630  0.2141E+01  0.2185E+02
  -0.620  0.2041E+01  0.2187E+02
  -0.610  0.1952E+01  0.2189E+02
  -0.600  0.1874E+01  0.2191E+02
  -0.590  0.1812E+01  0.2193E+02
  -0.580  0.1754E+01  0.2194E+02
  -0.570  0.1689E+01  0.2196E+02
  -0.560  0.1348E+01  0.2198E+02
  -0.550  0.8940E+00  0.2199E+02
  -0.540  0.5581E+00  0.2200E+02
  -0.530  0.7184E-01  0.2200E+02
  -0.520  0.0000E+00  0.2200E+02
  -0.510  0.0000E+00  0.2200E+02
  -0.500  0.0000E+00  0.2200E+02
  -0.490  0.0000E+00  0.2200E+02
  -0.480  0.0000E+00  0.2200E+02
  -0.470  0.0000E+00  0.2200E+02
  -0.460  0.0000E+00  0.2200E+02
  -0.450  0.0000E+00  0.2200E+02
  -0.440  0.0000E+00  0.2200E+02
  -0.430  0.0000E+00  0.2200E+02
  -0.420  0.0000E+00  0.2200E+02
  -0.410  0.0000E+00  0.2200E+02
  -0.400  0.0000E+00  0.2200E+02
  -0.390  0.0000E+00  0.2200E+02
  -0.380  0.0000E+00  0.2200E+02
  -0.370  0.0000E+00  0.2200E+02
  -0.360  0.0000E+00  0.2200E+02
  -0.350  0.0000E+00  0.2200E+02
  -0.340  0.0000E+00  0.2200E+02
  -0.330  0.0000E+00  0.2200E+02
  -0.320  0.0000E+00  0.2200E+02
  -0.310  0.0000E+00  0.2200E+02
  -0.300  0.0000E+00  0.2200E+02
  -0.290  0.0000E+00  0.2200E+02
  -0.280  0.0000E+00  0.2200E+02
  -0.270  0.0000E+00  0.2200E+02
  -0.260  0.0000E+00  0.2200E+02
  -0.250  0.0000E+00  0.2200E+02
  -0.240  0.0000E+00  0.2200E+02
  -0.230  0.0000E+00  0.2200E+02
  -0.220  0.0000E+00  0.2200E+02
  -0.210  0.0000E+00  0.2200E+02
  -0.200  0.0000E+00  0.2200E+02
  -0.190  0.0000E+00  0.2200E+02
  -0.180  0.0000E+00  0.2200E+02
  -0.170  0.0000E+00  0.2200E+02
  -0.160  0.0000E+00  0.2200E+02
  -0.150  0.0000E+00  0.2200E+02
  -0.140  0.0000E+00  0.2200E+02
  -0.130  0.0000E+00  0.2200E+02
  -0.120  0.0000E+00  0.2200E+02
  -0.110  0.0000E+00  0.2200E+02
  -0.100  0.0000E+00  0.2200E+02
  -0.090  0.0000E+00  0.2200E+02
  -0.080  0.0000E+00  0.2200E+02
  -0.070  0.0000E+00  0.2200E+02
  -0.060  0.0000E+00  0.2200E+02
  -0.050  0.0000E+00  0.2200E+02
  -0.040  0.0000E+00  0.2200E+02
  -0.030  0.0000E+00  0.2200E+02
  -0.020  0.0000E+00  0.2200E+02
  -0.010  0.0000E+00  0.2200E+02
   0.000  0.0000E+00  0.2200E+02
   0.010  0.0000E+00  0.2200E+02
   0.020  0.0000E+00  0.2200E+02
   0.030  0.0000E+00  0.2200E+02
   0.040  0.0000E+00  0.2200E+02
   0.050  0.0000E+00  0.2200E+02
   0.060  0.0000E+00  0.2200E+02
   0.070  0.0000E+00  0.2200E+02
   0.080  0.0000E+00  0.2200E+02
   0.090  0.0000E+00  0.2200E+02
   0.100  0.0000E+00  0.2200E+02
   0.110  0.0000E+00  0.2200E+02
   0.120  0.0000E+00  0.2200E+02
   0.130  0.0000E+00  0.2200E+02
   0.140  0.0000E+00  0.2200E+02
   0.150  0.0000E+00  0.2200E+02
   0.160  0.0000E+00  0.2200E+02
   0.170  0.0000E+00  0.2200E+02
   0.180  0.0000E+00  0.2200E+02
   0.190  0.0000E+00  0.2200E+02
   0.200  0.0000E+00  0.2200E+02
   0.210  0.0000E+00  0.2200E+02
   0.220  0.0000E+00  0.2200E+02
   0.230  0.0000E+00  0.2200E+02
   0.240  0.0000E+00  0.2200E+02
   0.250  0.0000E+00  0.2200E+02
   0.260  0.0000E+00  0.2200E+02
   0.270  0.0000E+00  0.2200E+02
   0.280  0.0000E+00  0.2200E+02
   0.290  0.0000E+00  0.2200E+02
   0.300  0.0000E+00  0.2200E+02
   0.310  0.0000E+00  0.2200E+02
   0.320  0.0000E+00  0.2200E+02
   0.330  0.0000E+00  0.2200E+02
   0.340  0.0000E+00  0.2200E+02
   0.350  0.0000E+00  0.2200E+02
   0.360  0.0000E+00  0.2200E+02
   0.370  0.0000E+00  0.2200E+02
   0.380  0.0000E+00  0.2200E+02
   0.390  0.0000E+00  0.2200E+02
   0.400  0.0000E+00  0.2200E+02
   0.410  0.0000E+00  0.2200E+02
   0.420  0.0000E+00  0.2200E+02
   0.430  0.0000E+00  0.2200E+02
   0.440  0.0000E+00  0.2200E+02
   0.450  0.0000E+00  0.2200E+02
   0.460  0.0000E+00  0.2200E+02
   0.470  0.0000E+00  0.2200E+02
   0.480  0.0000E+00  0.2200E+02
   0.490  0.0000E+00  0.2200E+02
   0.500  0.0000E+00  0.2200E+02
   0.510  0.0000E+00  0.2200E+02
   0.520  0.0000E+00  0.2200E+02
   0.530  0.0000E+00  0.2200E+02
   0.540  0.0000E+00  0.2200E+02
   0.550  0.0000E+00  0.2200E+02
   0.560  0.0000E+00  0.2200E+02
   0.570  0.0000E+00  0.2200E+02
   0.580  0.0000E+00  0.2200E+02
   0.590  0.0000E+00  0.2200E+02
   0.600  0.0000E+00  0.2200E+02
   0.610  0.0000E+00  0.2200E+02
   0.620  0.0000E+00  0.2200E+02
   0.630  0.0000E+00  0.2200E+02
   0.640  0.0000E+00  0.2200E+02
   0.650  0.0000E+00  0.2200E+02
   0.660  0.0000E+00  0.2200E+02
   0.670  0.0000E+00  0.2200E+02
   0.680  0.0000E+00  0.2200E+02
   0.690  0.0000E+00  0.2200E+02
   0.700  0.0000E+00  0.2200E+02
   0.710  0.0000E+00  0.2200E+02
   0.720  0.0000E+00  0.2200E+02
   0.730  0.0000E+00  0.2200E+02
   0.740  0.0000E+00  0.2200E+02
   0.750  0.0000E+00  0.2200E+02
   0.760  0.0000E+00  0.2200E+02
   0.770  0.0000E+00  0.2200E+02
   0.780  0.0000E+00  0.2200E+02
   0.790  0.0000E+00  0.2200E+02
   0.800  0.0000E+00  0.2200E+02
   0.810  0.0000E+00  0.2200E+02
   0.820  0.0000E+00  0.2200E+02
   0.830  0.0000E+00  0.2200E+02
   0.840  0.0000E+00  0.2200E+02
   0.850  0.0000E+00  0.2200E+02
   0.860  0.0000E+00  0.2200E+02
   0.870  0.0000E+00  0.2200E+02
   0.880  0.0000E+00  0.2200E+02
   0.890  0.0000E+00  0.2200E+02
   0.900  0.0000E+00  0.2200E+02
   0.910  0.0000E+00  0.2200E+02
   0.920  0.0000E+00  0.2200E+02
   0.930  0.0000E+00  0.2200E+02
   0.940  0.0000E+00  0.2200E+02
   0.950  0.0000E+00  0.2200E+02
   0.960  0.0000E+00  0.2200E+02
   0.970  0.0000E+00  0.2200E+02
   0.980  0.0000E+00  0.2200E+02
   0.990  0.0000E+00  0.2200E+02
   1.000  0.0000E+00  0.2200E+02
   1.010  0.0000E+00  0.2200E+02
   1.020  0.0000E+00  0.2200E+02
   1.030  0.0000E+00  0.2200E+02
   1.040  0.0000E+00  0.2200E+02
   1.050  0.0000E+00  0.2200E+02
   1.060  0.0000E+00  0.2200E+02
   1.070  0.0000E+00  0.2200E+02
   1.080  0.0000E+00  0.2200E+02
   1.090  0.0000E+00  0.2200E+02
   1.100  0.0000E+00  0.2200E+02
   1.110  0.0000E+00  0.2200E+02
   1.120  0.0000E+00  0.2200E+02
   1.130  0.0000E+00  0.2200E+02
   1.140  0.0000E+00  0.2200E+02
   1.150  0.0000E+00  0.2200E+02
   1.160  0.0000E+00  0.2200E+02
   1.170  0.0000E+00  0.2200E+02
   1.180  0.0000E+00  0.2200E+02
   1.190  0.0000E+00  0.2200E+02
   1.200  0.0000E+00  0.2200E+02
   1.210  0.0000E+00  0.2200E+02
   1.220  0.0000E+00  0.2200E+02
   1.230  0.0000E+00  0.2200E+02
   1.240  0.0000E+00  0.2200E+02
   1.250  0.0000E+00  0.2200E+02
   1.260  0.0000E+00  0.2200E+02
   1.270  0.0000E+00  0.2200E+02
   1.280  0.0000E+00  0.2200E+02
   1.290  0.0000E+00  0.2200E+02
   1.300  0.0000E+00  0.2200E+02
   1.310  0.0000E+00  0.2200E+02
   1.320  0.0000E+00  0.2200E+02
   1.330  0.0000E+00  0.2200E+02
   1.340  0.0000E+00  0.2200E+02
   1.350  0.0000E+00  0.2200E+02
   1.360  0.0000E+00  0.2200E+02
   1.370  0.0000E+00  0.2200E+02
   1.380  0.0000E+00  0.2200E+02
   1.390  0.0000E+00  0.2200E+02
   1.400  0.0000E+00  0.2200E+02
   1.410  0.0000E+00  0.2200E+02
   1.420  0.0000E+00  0.2200E+02
   1.430  0.0000E+00  0.2200E+02
   1.440  0.0000E+00  0.2200E+02
   1.450  0.0000E+00  0.2200E+02
   1.460  0.0000E+00  0.2200E+02
   1.470  0.0000E+00  0.2200E+02
   1.480  0.0000E+00  0.2200E+02
   1.490  0.0000E+00  0.2200E+02
   1.500  0.0000E+00  0.2200E+02
   1.510  0.0000E+00  0.2200E+02
   1.520  0.0000E+00  0.2200E+02
   1.530  0.1464E-01  0.2200E+02
   1.540  0.7027E-01  0.2200E+02
   1.550  0.1223E+00  0.2200E+02
   1.560  0.1543E+00  0.2200E+02
   1.570  0.1707E+00  0.2200E+02
   1.580  0.2107E+00  0.2201E+02
   1.590  0.2333E+00  0.2201E+02
   1.600  0.2426E+00  0.2201E+02
   1.610  0.2631E+00  0.2201E+02
   1.620  0.2865E+00  0.2202E+02
   1.630  0.3081E+00  0.2202E+02
   1.640  0.3210E+00  0.2202E+02
   1.650  0.3446E+00  0.2203E+02
   1.660  0.3555E+00  0.2203E+02
   1.670  0.3703E+00  0.2203E+02
   1.680  0.3879E+00  0.2204E+02
   1.690  0.4103E+00  0.2204E+02
   1.700  0.4349E+00  0.2204E+02
   1.710  0.4481E+00  0.2205E+02
   1.720  0.4577E+00  0.2205E+02
   1.730  0.4737E+00  0.2206E+02
   1.740  0.4943E+00  0.2206E+02
   1.750  0.5153E+00  0.2207E+02
   1.760  0.5316E+00  0.2207E+02
   1.770  0.5547E+00  0.2208E+02
   1.780  0.5746E+00  0.2208E+02
   1.790  0.5892E+00  0.2209E+02
   1.800  0.6311E+00  0.2210E+02
   1.810  0.6745E+00  0.2210E+02
   1.820  0.7009E+00  0.2211E+02
   1.830  0.7320E+00  0.2212E+02
   1.840  0.7680E+00  0.2212E+02
   1.850  0.8073E+00  0.2213E+02
   1.860  0.8452E+00  0.2214E+02
   1.870  0.8783E+00  0.2215E+02
   1.880  0.9105E+00  0.2216E+02
   1.890  0.9469E+00  0.2217E+02
   1.900  0.9783E+00  0.2218E+02
   1.910  0.1019E+01  0.2219E+02
   1.920  0.1072E+01  0.2220E+02
   1.930  0.1115E+01  0.2221E+02
   1.940  0.1164E+01  0.2222E+02
   1.950  0.1236E+01  0.2223E+02
   1.960  0.1339E+01  0.2224E+02
   1.970  0.1439E+01  0.2226E+02
   1.980  0.1471E+01  0.2227E+02
   1.990  0.1497E+01  0.2229E+02
   2.000  0.1485E+01  0.2230E+02
   2.010  0.1491E+01  0.2232E+02
   2.020  0.1506E+01  0.2233E+02
   2.030  0.1524E+01  0.2235E+02
   2.040  0.1542E+01  0.2236E+02
   2.050  0.1565E+01  0.2238E+02
   2.060  0.1585E+01  0.2239E+02
   2.070  0.1609E+01  0.2241E+02
   2.080  0.1634E+01  0.2243E+02
   2.090  0.1648E+01  0.2244E+02
   2.100  0.1671E+01  0.2246E+02
   2.110  0.1704E+01  0.2248E+02
   2.120  0.1743E+01  0.2249E+02
   2.130  0.1787E+01  0.2251E+02
   2.140  0.1857E+01  0.2253E+02
   2.150  0.1983E+01  0.2255E+02
   2.160  0.2035E+01  0.2257E+02
   2.170  0.2046E+01  0.2259E+02
   2.180  0.2026E+01  0.2261E+02
   2.190  0.2022E+01  0.2263E+02
   2.200  0.2012E+01  0.2265E+02
   2.210  0.2004E+01  0.2267E+02
   2.220  0.1993E+01  0.2269E+02
   2.230  0.1988E+01  0.2271E+02
   2.240  0.1980E+01  0.2273E+02
   2.250  0.1967E+01  0.2275E+02
   2.260  0.1979E+01  0.2277E+02
   2.270  0.1962E+01  0.2279E+02
   2.280  0.1835E+01  0.2281E+02
   2.290  0.1733E+01  0.2283E+02
   2.300  0.1663E+01  0.2284E+02
   2.310  0.1613E+01  0.2286E+02
   2.320  0.1561E+01  0.2288E+02
   2.330  0.1517E+01  0.2289E+02
   2.340  0.1484E+01  0.2291E+02
   2.350  0.1453E+01  0.2292E+02
   2.360  0.1423E+01  0.2293E+02
   2.370  0.1398E+01  0.2295E+02
   2.380  0.1374E+01  0.2296E+02
   2.390  0.1352E+01  0.2298E+02
   2.400  0.1332E+01  0.2299E+02
   2.410  0.1312E+01  0.2300E+02
   2.420  0.1294E+01  0.2302E+02
   2.430  0.1277E+01  0.2303E+02
   2.440  0.1257E+01  0.2304E+02
   2.450  0.1239E+01  0.2305E+02
   2.460  0.1223E+01  0.2307E+02
   2.470  0.1208E+01  0.2308E+02
   2.480  0.1195E+01  0.2309E+02
   2.490  0.1182E+01  0.2310E+02
   2.500  0.1169E+01  0.2311E+02
   2.510  0.1156E+01  0.2313E+02
   2.520  0.1144E+01  0.2314E+02
   2.530  0.1133E+01  0.2315E+02
   2.540  0.1122E+01  0.2316E+02
   2.550  0.1112E+01  0.2317E+02
   2.560  0.1101E+01  0.2318E+02
   2.570  0.1090E+01  0.2319E+02
   2.580  0.1079E+01  0.2320E+02
   2.590  0.1068E+01  0.2321E+02
   2.600  0.1059E+01  0.2323E+02
   2.610  0.1050E+01  0.2324E+02
   2.620  0.1041E+01  0.2325E+02
   2.630  0.1033E+01  0.2326E+02
   2.640  0.1025E+01  0.2327E+02
   2.650  0.1017E+01  0.2328E+02
   2.660  0.1009E+01  0.2329E+02
   2.670  0.1001E+01  0.2330E+02
   2.680  0.9931E+00  0.2331E+02
   2.690  0.9857E+00  0.2332E+02
   2.700  0.9783E+00  0.2333E+02
   2.710  0.9711E+00  0.2334E+02
   2.720  0.9642E+00  0.2335E+02
   2.730  0.9569E+00  0.2336E+02
   2.740  0.9508E+00  0.2337E+02
   2.750  0.9444E+00  0.2338E+02
   2.760  0.9373E+00  0.2338E+02
   2.770  0.9304E+00  0.2339E+02
   2.780  0.9241E+00  0.2340E+02
   2.790  0.9175E+00  0.2341E+02
   2.800  0.9113E+00  0.2342E+02
   2.810  0.9058E+00  0.2343E+02
   2.820  0.9014E+00  0.2344E+02
   2.830  0.8967E+00  0.2345E+02
   2.840  0.8902E+00  0.2346E+02
   2.850  0.8835E+00  0.2347E+02
   2.860  0.8768E+00  0.2348E+02
   2.870  0.8750E+00  0.2348E+02
   2.880  0.8701E+00  0.2349E+02
   2.890  0.8623E+00  0.2350E+02
   2.900  0.8646E+00  0.2351E+02
   2.910  0.8209E+00  0.2352E+02
   2.920  0.7528E+00  0.2353E+02
   2.930  0.7228E+00  0.2353E+02
   2.940  0.6998E+00  0.2354E+02
   2.950  0.6829E+00  0.2355E+02
   2.960  0.6543E+00  0.2355E+02
   2.970  0.6362E+00  0.2356E+02
   2.980  0.6205E+00  0.2357E+02
   2.990  0.6080E+00  0.2357E+02
   3.000  0.5983E+00  0.2358E+02
   3.010  0.5831E+00  0.2359E+02
   3.020  0.5698E+00  0.2359E+02
   3.030  0.5573E+00  0.2360E+02
   3.040  0.5456E+00  0.2360E+02
   3.050  0.5350E+00  0.2361E+02
   3.060  0.5261E+00  0.2361E+02
   3.070  0.5186E+00  0.2362E+02
   3.080  0.5108E+00  0.2362E+02
   3.090  0.5016E+00  0.2363E+02
   3.100  0.4937E+00  0.2363E+02
   3.110  0.4844E+00  0.2364E+02
   3.120  0.4757E+00  0.2364E+02
   3.130  0.4675E+00  0.2365E+02
   3.140  0.4600E+00  0.2365E+02
   3.150  0.4535E+00  0.2366E+02
   3.160  0.4482E+00  0.2366E+02
   3.170  0.4425E+00  0.2367E+02
   3.180  0.4364E+00  0.2367E+02
   3.190  0.4293E+00  0.2367E+02
   3.200  0.4247E+00  0.2368E+02
   3.210  0.4199E+00  0.2368E+02
   3.220  0.4128E+00  0.2369E+02
   3.230  0.4060E+00  0.2369E+02
   3.240  0.3996E+00  0.2370E+02
   3.250  0.3935E+00  0.2370E+02
   3.260  0.3879E+00  0.2370E+02
   3.270  0.3832E+00  0.2371E+02
   3.280  0.3786E+00  0.2371E+02
   3.290  0.3740E+00  0.2371E+02
   3.300  0.3695E+00  0.2372E+02
   3.310  0.3644E+00  0.2372E+02
   3.320  0.3599E+00  0.2373E+02
   3.330  0.3568E+00  0.2373E+02
   3.340  0.3539E+00  0.2373E+02
   3.350  0.3507E+00  0.2374E+02
   3.360  0.3459E+00  0.2374E+02
   3.370  0.3402E+00  0.2374E+02
   3.380  0.3350E+00  0.2375E+02
   3.390  0.3302E+00  0.2375E+02
   3.400  0.3260E+00  0.2375E+02
   3.410  0.3221E+00  0.2376E+02
   3.420  0.3184E+00  0.2376E+02
   3.430  0.3147E+00  0.2376E+02
   3.440  0.3110E+00  0.2377E+02
   3.450  0.3072E+00  0.2377E+02
   3.460  0.3031E+00  0.2377E+02
   3.470  0.2997E+00  0.2377E+02
   3.480  0.2969E+00  0.2378E+02
   3.490  0.2941E+00  0.2378E+02
   3.500  0.2912E+00  0.2378E+02
   3.510  0.2882E+00  0.2379E+02
   3.520  0.2853E+00  0.2379E+02
   3.530  0.2826E+00  0.2379E+02
   3.540  0.2794E+00  0.2380E+02
   3.550  0.2755E+00  0.2380E+02
   3.560  0.2718E+00  0.2380E+02
   3.570  0.2685E+00  0.2380E+02
   3.580  0.2652E+00  0.2381E+02
   3.590  0.2621E+00  0.2381E+02
   3.600  0.2591E+00  0.2381E+02
   3.610  0.2560E+00  0.2381E+02
   3.620  0.2529E+00  0.2382E+02
   3.630  0.2496E+00  0.2382E+02
   3.640  0.2469E+00  0.2382E+02
   3.650  0.2446E+00  0.2382E+02
   3.660  0.2423E+00  0.2383E+02
   3.670  0.2400E+00  0.2383E+02
   3.680  0.2376E+00  0.2383E+02
   3.690  0.2351E+00  0.2383E+02
   3.700  0.2326E+00  0.2384E+02
   3.710  0.2302E+00  0.2384E+02
   3.720  0.2278E+00  0.2384E+02
   3.730  0.2256E+00  0.2384E+02
   3.740  0.2233E+00  0.2384E+02
   3.750  0.2206E+00  0.2385E+02
   3.760  0.2179E+00  0.2385E+02
   3.770  0.2153E+00  0.2385E+02
   3.780  0.2128E+00  0.2385E+02
   3.790  0.2102E+00  0.2386E+02
   3.800  0.2075E+00  0.2386E+02
   3.810  0.2050E+00  0.2386E+02
   3.820  0.2021E+00  0.2386E+02
   3.830  0.2002E+00  0.2386E+02
   3.840  0.1983E+00  0.2387E+02
   3.850  0.1964E+00  0.2387E+02
   3.860  0.1946E+00  0.2387E+02
   3.870  0.1927E+00  0.2387E+02
   3.880  0.1907E+00  0.2387E+02
   3.890  0.1886E+00  0.2388E+02
   3.900  0.1866E+00  0.2388E+02
   3.910  0.1847E+00  0.2388E+02
   3.920  0.1828E+00  0.2388E+02
   3.930  0.1809E+00  0.2388E+02
   3.940  0.1793E+00  0.2388E+02
   3.950  0.1773E+00  0.2389E+02
   3.960  0.1751E+00  0.2389E+02
   3.970  0.1730E+00  0.2389E+02
   3.980  0.1709E+00  0.2389E+02
   3.990  0.1689E+00  0.2389E+02
   4.000  0.1668E+00  0.2390E+02
   4.010  0.1647E+00  0.2390E+02
   4.020  0.1626E+00  0.2390E+02
   4.030  0.1604E+00  0.2390E+02
   4.040  0.1589E+00  0.2390E+02
   4.050  0.1573E+00  0.2390E+02
   4.060  0.1558E+00  0.2390E+02
   4.070  0.1543E+00  0.2391E+02
   4.080  0.1527E+00  0.2391E+02
   4.090  0.1511E+00  0.2391E+02
   4.100  0.1495E+00  0.2391E+02
   4.110  0.1478E+00  0.2391E+02
   4.120  0.1462E+00  0.2391E+02
   4.130  0.1447E+00  0.2392E+02
   4.140  0.1432E+00  0.2392E+02
   4.150  0.1418E+00  0.2392E+02
   4.160  0.1401E+00  0.2392E+02
   4.170  0.1383E+00  0.2392E+02
   4.180  0.1366E+00  0.2392E+02
   4.190  0.1349E+00  0.2392E+02
   4.200  0.1332E+00  0.2393E+02
   4.210  0.1315E+00  0.2393E+02
   4.220  0.1298E+00  0.2393E+02
   4.230  0.1282E+00  0.2393E+02
   4.240  0.1265E+00  0.2393E+02
   4.250  0.1248E+00  0.2393E+02
   4.260  0.1236E+00  0.2393E+02
   4.270  0.1224E+00  0.2393E+02
   4.280  0.1211E+00  0.2394E+02
   4.290  0.1199E+00  0.2394E+02
   4.300  0.1187E+00  0.2394E+02
   4.310  0.1174E+00  0.2394E+02
   4.320  0.1160E+00  0.2394E+02
   4.330  0.1147E+00  0.2394E+02
   4.340  0.1134E+00  0.2394E+02
   4.350  0.1122E+00  0.2394E+02
   4.360  0.1108E+00  0.2394E+02
   4.370  0.1092E+00  0.2395E+02
   4.380  0.1077E+00  0.2395E+02
   4.390  0.1063E+00  0.2395E+02
   4.400  0.1049E+00  0.2395E+02
   4.410  0.1035E+00  0.2395E+02
   4.420  0.1022E+00  0.2395E+02
   4.430  0.1008E+00  0.2395E+02
   4.440  0.9943E-01  0.2395E+02
   4.450  0.9806E-01  0.2395E+02
   4.460  0.9676E-01  0.2395E+02
   4.470  0.9534E-01  0.2396E+02
   4.480  0.9438E-01  0.2396E+02
   4.490  0.9339E-01  0.2396E+02
   4.500  0.9239E-01  0.2396E+02
   4.510  0.9140E-01  0.2396E+02
   4.520  0.9041E-01  0.2396E+02
   4.530  0.8938E-01  0.2396E+02
   4.540  0.8829E-01  0.2396E+02
   4.550  0.8717E-01  0.2396E+02
   4.560  0.8601E-01  0.2396E+02
   4.570  0.8450E-01  0.2396E+02
   4.580  0.8309E-01  0.2397E+02
   4.590  0.8179E-01  0.2397E+02
   4.600  0.8062E-01  0.2397E+02
   4.610  0.7946E-01  0.2397E+02
   4.620  0.7833E-01  0.2397E+02
   4.630  0.7719E-01  0.2397E+02
   4.640  0.7607E-01  0.2397E+02
   4.650  0.7498E-01  0.2397E+02
   4.660  0.7391E-01  0.2397E+02
   4.670  0.7282E-01  0.2397E+02
   4.680  0.7159E-01  0.2397E+02
   4.690  0.7065E-01  0.2397E+02
   4.700  0.6990E-01  0.2397E+02
   4.710  0.6910E-01  0.2398E+02
   4.720  0.6829E-01  0.2398E+02
   4.730  0.6752E-01  0.2398E+02
   4.740  0.6672E-01  0.2398E+02
   4.750  0.6569E-01  0.2398E+02
   4.760  0.6434E-01  0.2398E+02
   4.770  0.6301E-01  0.2398E+02
   4.780  0.6173E-01  0.2398E+02
   4.790  0.6049E-01  0.2398E+02
   4.800  0.5938E-01  0.2398E+02
   4.810  0.5842E-01  0.2398E+02
   4.820  0.5749E-01  0.2398E+02
   4.830  0.5656E-01  0.2398E+02
   4.840  0.5566E-01  0.2398E+02
   4.850  0.5477E-01  0.2398E+02
   4.860  0.5388E-01  0.2398E+02
   4.870  0.5300E-01  0.2399E+02
   4.880  0.5205E-01  0.2399E+02
   4.890  0.5103E-01  0.2399E+02
   4.900  0.5051E-01  0.2399E+02
   4.910  0.4989E-01  0.2399E+02
   4.920  0.4934E-01  0.2399E+02
   4.930  0.4842E-01  0.2399E+02
   4.940  0.4706E-01  0.2399E+02
   4.950  0.4575E-01  0.2399E+02
   4.960  0.4452E-01  0.2399E+02
   4.970  0.4341E-01  0.2399E+02
   4.980  0.4237E-01  0.2399E+02
   4.990  0.4139E-01  0.2399E+02
   5.000  0.4052E-01  0.2399E+02
   5.010  0.3982E-01  0.2399E+02
   5.020  0.3911E-01  0.2399E+02
   5.030  0.3834E-01  0.2399E+02
   5.040  0.3758E-01  0.2399E+02
   5.050  0.3690E-01  0.2399E+02
   5.060  0.3623E-01  0.2399E+02
   5.070  0.3522E-01  0.2399E+02
   5.080  0.3477E-01  0.2399E+02
   5.090  0.3372E-01  0.2399E+02
   5.100  0.3238E-01  0.2400E+02
   5.110  0.3111E-01  0.2400E+02
   5.120  0.2992E-01  0.2400E+02
   5.130  0.2881E-01  0.2400E+02
   5.140  0.2782E-01  0.2400E+02
   5.150  0.2692E-01  0.2400E+02
   5.160  0.2625E-01  0.2400E+02
   5.170  0.2582E-01  0.2400E+02
   5.180  0.2520E-01  0.2400E+02
   5.190  0.2447E-01  0.2400E+02
   5.200  0.2411E-01  0.2400E+02
   5.210  0.2299E-01  0.2400E+02
   5.220  0.2109E-01  0.2400E+02
   5.230  0.1078E+00  0.2400E+02
   5.240  0.5080E+00  0.2400E+02
   5.250  0.5298E+00  0.2401E+02
   5.260  0.5072E+00  0.2401E+02
   5.270  0.4902E+00  0.2402E+02
   5.280  0.4821E+00  0.2402E+02
   5.290  0.4956E+00  0.2403E+02
   5.300  0.5085E+00  0.2403E+02
   5.310  0.4952E+00  0.2404E+02
   5.320  0.4983E+00  0.2404E+02
   5.330  0.4954E+00  0.2405E+02
   5.340  0.5048E+00  0.2405E+02
   5.350  0.5145E+00  0.2406E+02
   5.360  0.5237E+00  0.2406E+02
   5.370  0.5284E+00  0.2407E+02
   5.380  0.5282E+00  0.2407E+02
   5.390  0.5316E+00  0.2408E+02
   5.400  0.5349E+00  0.2408E+02
   5.410  0.5438E+00  0.2409E+02
   5.420  0.5559E+00  0.2409E+02
   5.430  0.5674E+00  0.2410E+02
   5.440  0.5725E+00  0.2411E+02
   5.450  0.5745E+00  0.2411E+02
   5.460  0.5797E+00  0.2412E+02
   5.470  0.5851E+00  0.2412E+02
   5.480  0.5909E+00  0.2413E+02
   5.490  0.5960E+00  0.2413E+02
   5.500  0.6035E+00  0.2414E+02
   5.510  0.6166E+00  0.2415E+02
   5.520  0.6237E+00  0.2415E+02
   5.530  0.6308E+00  0.2416E+02
   5.540  0.6365E+00  0.2417E+02
   5.550  0.6411E+00  0.2417E+02
   5.560  0.6481E+00  0.2418E+02
   5.570  0.6556E+00  0.2419E+02
   5.580  0.6632E+00  0.2419E+02
   5.590  0.6703E+00  0.2420E+02
   5.600  0.6797E+00  0.2421E+02
   5.610  0.6891E+00  0.2421E+02
   5.620  0.6975E+00  0.2422E+02
   5.630  0.7072E+00  0.2423E+02
   5.640  0.7171E+00  0.2423E+02
   5.650  0.7269E+00  0.2424E+02
   5.660  0.7385E+00  0.2425E+02
   5.670  0.7522E+00  0.2426E+02
   5.680  0.7712E+00  0.2426E+02
   5.690  0.7918E+00  0.2427E+02
   5.700  0.8216E+00  0.2428E+02
   5.710  0.8444E+00  0.2429E+02
   5.720  0.8650E+00  0.2430E+02
   5.730  0.8703E+00  0.2430E+02
   5.740  0.8436E+00  0.2431E+02
   5.750  0.8386E+00  0.2432E+02
   5.760  0.8361E+00  0.2433E+02
   5.770  0.8244E+00  0.2434E+02
   5.780  0.8084E+00  0.2435E+02
   5.790  0.7949E+00  0.2435E+02
   5.800  0.7972E+00  0.2436E+02
   5.810  0.7986E+00  0.2437E+02
   5.820  0.7940E+00  0.2438E+02
   5.830  0.7874E+00  0.2439E+02
   5.840  0.7706E+00  0.2439E+02
   5.850  0.7689E+00  0.2440E+02
   5.860  0.7709E+00  0.2441E+02
   5.870  0.7745E+00  0.2442E+02
   5.880  0.7783E+00  0.2442E+02
   5.890  0.7834E+00  0.2443E+02
   5.900  0.7934E+00  0.2444E+02
   5.910  0.7990E+00  0.2445E+02
   5.920  0.7963E+00  0.2446E+02
   5.930  0.7987E+00  0.2446E+02
   5.940  0.8018E+00  0.2447E+02
   5.950  0.8031E+00  0.2448E+02
   5.960  0.8049E+00  0.2449E+02
   5.970  0.8075E+00  0.2450E+02
   5.980  0.8115E+00  0.2450E+02
   5.990  0.8161E+00  0.2451E+02
   6.000  0.8206E+00  0.2452E+02
   6.010  0.8224E+00  0.2453E+02
   6.020  0.8238E+00  0.2454E+02
   6.030  0.8260E+00  0.2455E+02
   6.040  0.8302E+00  0.2455E+02
   6.050  0.8323E+00  0.2456E+02
   6.060  0.8365E+00  0.2457E+02
   6.070  0.8424E+00  0.2458E+02
   6.080  0.8483E+00  0.2459E+02
   6.090  0.8556E+00  0.2460E+02
   6.100  0.8609E+00  0.2460E+02
   6.110  0.8647E+00  0.2461E+02
   6.120  0.8657E+00  0.2462E+02
   6.130  0.8678E+00  0.2463E+02
   6.140  0.8712E+00  0.2464E+02
   6.150  0.8757E+00  0.2465E+02
   6.160  0.8806E+00  0.2466E+02
   6.170  0.8856E+00  0.2467E+02
   6.180  0.8902E+00  0.2467E+02
   6.190  0.8937E+00  0.2468E+02
   6.200  0.8991E+00  0.2469E+02
   6.210  0.9035E+00  0.2470E+02
   6.220  0.9077E+00  0.2471E+02
   6.230  0.9133E+00  0.2472E+02
   6.240  0.9194E+00  0.2473E+02
   6.250  0.9237E+00  0.2474E+02
   6.260  0.9261E+00  0.2475E+02
   6.270  0.9298E+00  0.2476E+02
   6.280  0.9336E+00  0.2477E+02
   6.290  0.9353E+00  0.2477E+02
   6.300  0.9410E+00  0.2478E+02
   6.310  0.9474E+00  0.2479E+02
   6.320  0.9547E+00  0.2480E+02
   6.330  0.9622E+00  0.2481E+02
   6.340  0.9703E+00  0.2482E+02
   6.350  0.9768E+00  0.2483E+02
   6.360  0.9819E+00  0.2484E+02
   6.370  0.9858E+00  0.2485E+02
   6.380  0.9893E+00  0.2486E+02
   6.390  0.9921E+00  0.2487E+02
   6.400  0.9959E+00  0.2488E+02
   6.410  0.1001E+01  0.2489E+02
   6.420  0.1006E+01  0.2490E+02
   6.430  0.1011E+01  0.2491E+02
   6.440  0.1016E+01  0.2492E+02
   6.450  0.1022E+01  0.2493E+02
   6.460  0.1030E+01  0.2494E+02
   6.470  0.1038E+01  0.2495E+02
   6.480  0.1044E+01  0.2496E+02
   6.490  0.1050E+01  0.2497E+02
   6.500  0.1057E+01  0.2498E+02
   6.510  0.1063E+01  0.2499E+02
   6.520  0.1068E+01  0.2501E+02
   6.530  0.1072E+01  0.2502E+02
   6.540  0.1077E+01  0.2503E+02
   6.550  0.1084E+01  0.2504E+02
   6.560  0.1091E+01  0.2505E+02
   6.570  0.1099E+01  0.2506E+02
   6.580  0.1107E+01  0.2507E+02
   6.590  0.1112E+01  0.2508E+02
   6.600  0.1118E+01  0.2509E+02
   6.610  0.1124E+01  0.2510E+02
   6.620  0.1132E+01  0.2511E+02
   6.630  0.1139E+01  0.2513E+02
   6.640  0.1146E+01  0.2514E+02
   6.650  0.1153E+01  0.2515E+02
   6.660  0.1160E+01  0.2516E+02
   6.670  0.1165E+01  0.2517E+02
   6.680  0.1172E+01  0.2518E+02
   6.690  0.1180E+01  0.2520E+02
   6.700  0.1189E+01  0.2521E+02
   6.710  0.1199E+01  0.2522E+02
   6.720  0.1208E+01  0.2523E+02
   6.730  0.1218E+01  0.2524E+02
   6.740  0.1226E+01  0.2526E+02
   6.750  0.1233E+01  0.2527E+02
   6.760  0.1241E+01  0.2528E+02
   6.770  0.1251E+01  0.2529E+02
   6.780  0.1261E+01  0.2531E+02
   6.790  0.1270E+01  0.2532E+02
   6.800  0.1280E+01  0.2533E+02
   6.810  0.1290E+01  0.2534E+02
   6.820  0.1300E+01  0.2536E+02
   6.830  0.1309E+01  0.2537E+02
   6.840  0.1320E+01  0.2538E+02
   6.850  0.1333E+01  0.2540E+02
   6.860  0.1347E+01  0.2541E+02
   6.870  0.1363E+01  0.2542E+02
   6.880  0.1377E+01  0.2544E+02
   6.890  0.1391E+01  0.2545E+02
   6.900  0.1407E+01  0.2546E+02
   6.910  0.1426E+01  0.2548E+02
   6.920  0.1447E+01  0.2549E+02
   6.930  0.1469E+01  0.2551E+02
   6.940  0.1492E+01  0.2552E+02
   6.950  0.1603E+01  0.2554E+02
   6.960  0.1637E+01  0.2555E+02
   6.970  0.1655E+01  0.2557E+02
   6.980  0.1632E+01  0.2559E+02
   6.990  0.1620E+01  0.2560E+02
   7.000  0.1610E+01  0.2562E+02
   7.010  0.1608E+01  0.2564E+02
   7.020  0.1611E+01  0.2565E+02
   7.030  0.1616E+01  0.2567E+02
   7.040  0.1611E+01  0.2568E+02
   7.050  0.1609E+01  0.2570E+02
   7.060  0.1610E+01  0.2572E+02
   7.070  0.1614E+01  0.2573E+02
   7.080  0.1611E+01  0.2575E+02
   7.090  0.1611E+01  0.2576E+02
   7.100  0.1610E+01  0.2578E+02
   7.110  0.1608E+01  0.2580E+02
   7.120  0.1608E+01  0.2581E+02
   7.130  0.1607E+01  0.2583E+02
   7.140  0.1609E+01  0.2584E+02
   7.150  0.1607E+01  0.2586E+02
   7.160  0.1603E+01  0.2588E+02
   7.170  0.1601E+01  0.2589E+02
   7.180  0.1606E+01  0.2591E+02
   7.190  0.1602E+01  0.2593E+02
   7.200  0.1598E+01  0.2594E+02
   7.210  0.1600E+01  0.2596E+02
   7.220  0.1599E+01  0.2597E+02
   7.230  0.1599E+01  0.2599E+02
   7.240  0.1598E+01  0.2601E+02
   7.250  0.1596E+01  0.2602E+02
   7.260  0.1593E+01  0.2604E+02
   7.270  0.1596E+01  0.2605E+02
   7.280  0.1599E+01  0.2607E+02
   7.290  0.1595E+01  0.2608E+02
   7.300  0.1598E+01  0.2610E+02
   7.310  0.1597E+01  0.2612E+02
   7.320  0.1595E+01  0.2613E+02
   7.330  0.1593E+01  0.2615E+02
   7.340  0.1590E+01  0.2616E+02
   7.350  0.1587E+01  0.2618E+02
   7.360  0.1586E+01  0.2620E+02
   7.370  0.1586E+01  0.2621E+02
   7.380  0.1586E+01  0.2623E+02
   7.390  0.1592E+01  0.2624E+02
   7.400  0.1592E+01  0.2626E+02
   7.410  0.1595E+01  0.2628E+02
   7.420  0.1596E+01  0.2629E+02
   7.430  0.1595E+01  0.2631E+02
   7.440  0.1593E+01  0.2632E+02
   7.450  0.1589E+01  0.2634E+02
   7.460  0.1586E+01  0.2636E+02
   7.470  0.1585E+01  0.2637E+02
   7.480  0.1583E+01  0.2639E+02
   7.490  0.1580E+01  0.2640E+02
   7.500  0.1579E+01  0.2642E+02
   7.510  0.1579E+01  0.2643E+02
   7.520  0.1589E+01  0.2645E+02
   7.530  0.1590E+01  0.2647E+02
   7.540  0.1590E+01  0.2648E+02
   7.550  0.1589E+01  0.2650E+02
   7.560  0.1588E+01  0.2651E+02
   7.570  0.1586E+01  0.2653E+02
   7.580  0.1585E+01  0.2655E+02
   7.590  0.1585E+01  0.2656E+02
   7.600  0.1584E+01  0.2658E+02
   7.610  0.1583E+01  0.2659E+02
   7.620  0.1582E+01  0.2661E+02
   7.630  0.1582E+01  0.2662E+02
   7.640  0.1581E+01  0.2664E+02
   7.650  0.1579E+01  0.2666E+02
   7.660  0.1583E+01  0.2667E+02
   7.670  0.1587E+01  0.2669E+02
   7.680  0.1591E+01  0.2670E+02
   7.690  0.1591E+01  0.2672E+02
   7.700  0.1591E+01  0.2674E+02
   7.710  0.1589E+01  0.2675E+02
   7.720  0.1589E+01  0.2677E+02
   7.730  0.1587E+01  0.2678E+02
   7.740  0.1586E+01  0.2680E+02
   7.750  0.1584E+01  0.2682E+02
   7.760  0.1583E+01  0.2683E+02
   7.770  0.1583E+01  0.2685E+02
   7.780  0.1583E+01  0.2686E+02
   7.790  0.1582E+01  0.2688E+02
   7.800  0.1579E+01  0.2689E+02
   7.810  0.1579E+01  0.2691E+02
   7.820  0.1585E+01  0.2693E+02
   7.830  0.1586E+01  0.2694E+02
   7.840  0.1598E+01  0.2696E+02
   7.850  0.1596E+01  0.2697E+02
   7.860  0.1599E+01  0.2699E+02
   7.870  0.1605E+01  0.2701E+02
   7.880  0.1598E+01  0.2702E+02
   7.890  0.1596E+01  0.2704E+02
   7.900  0.1592E+01  0.2705E+02
   7.910  0.1588E+01  0.2707E+02
   7.920  0.1586E+01  0.2709E+02
   7.930  0.1585E+01  0.2710E+02
   7.940  0.1585E+01  0.2712E+02
   7.950  0.1583E+01  0.2713E+02
   7.960  0.1583E+01  0.2715E+02
   7.970  0.1582E+01  0.2716E+02
   7.980  0.1583E+01  0.2718E+02
   7.990  0.1596E+01  0.2720E+02
   8.000  0.1603E+01  0.2721E+02
   8.010  0.1605E+01  0.2723E+02
   8.020  0.1603E+01  0.2724E+02
   8.030  0.1607E+01  0.2726E+02
   8.040  0.1607E+01  0.2728E+02
   8.050  0.1604E+01  0.2729E+02
   8.060  0.1604E+01  0.2731E+02
   8.070  0.1597E+01  0.2732E+02
   8.080  0.1599E+01  0.2734E+02
   8.090  0.1598E+01  0.2736E+02
   8.100  0.1597E+01  0.2737E+02
   8.110  0.1597E+01  0.2739E+02
   8.120  0.1596E+01  0.2740E+02
   8.130  0.1607E+01  0.2742E+02
   8.140  0.1608E+01  0.2744E+02
   8.150  0.1607E+01  0.2745E+02
   8.160  0.1609E+01  0.2747E+02
   8.170  0.1613E+01  0.2748E+02
   8.180  0.1616E+01  0.2750E+02
   8.190  0.1620E+01  0.2752E+02
   8.200  0.1617E+01  0.2753E+02
   8.210  0.1614E+01  0.2755E+02
   8.220  0.1613E+01  0.2757E+02
   8.230  0.1613E+01  0.2758E+02
   8.240  0.1614E+01  0.2760E+02
   8.250  0.1616E+01  0.2761E+02
   8.260  0.1624E+01  0.2763E+02
   8.270  0.1635E+01  0.2765E+02
   8.280  0.1630E+01  0.2766E+02
   8.290  0.1631E+01  0.2768E+02
   8.300  0.1628E+01  0.2770E+02
   8.310  0.1627E+01  0.2771E+02
   8.320  0.1629E+01  0.2773E+02
   8.330  0.1633E+01  0.2774E+02
   8.340  0.1644E+01  0.2776E+02
   8.350  0.1647E+01  0.2778E+02
   8.360  0.1645E+01  0.2779E+02
   8.370  0.1642E+01  0.2781E+02
   8.380  0.1641E+01  0.2783E+02
   8.390  0.1651E+01  0.2784E+02
   8.400  0.1659E+01  0.2786E+02
   8.410  0.1662E+01  0.2788E+02
   8.420  0.1661E+01  0.2789E+02
   8.430  0.1659E+01  0.2791E+02
   8.440  0.1654E+01  0.2793E+02
   8.450  0.1655E+01  0.2794E+02
   8.460  0.1666E+01  0.2796E+02
   8.470  0.1684E+01  0.2798E+02
   8.480  0.1687E+01  0.2799E+02
   8.490  0.1694E+01  0.2801E+02
   8.500  0.1689E+01  0.2803E+02
   8.510  0.1689E+01  0.2804E+02
   8.520  0.1688E+01  0.2806E+02
   8.530  0.1676E+01  0.2808E+02
   8.540  0.1662E+01  0.2809E+02
   8.550  0.1651E+01  0.2811E+02
   8.560  0.1644E+01  0.2813E+02
   8.570  0.1636E+01  0.2814E+02
   8.580  0.1638E+01  0.2816E+02
   8.590  0.1648E+01  0.2818E+02
   8.600  0.1669E+01  0.2819E+02
   8.610  0.1672E+01  0.2821E+02
   8.620  0.1691E+01  0.2823E+02
   8.630  0.1716E+01  0.2824E+02
   8.640  0.1756E+01  0.2826E+02
   8.650  0.1831E+01  0.2828E+02
   8.660  0.1846E+01  0.2830E+02
   8.670  0.1864E+01  0.2832E+02
   8.680  0.1958E+01  0.2833E+02
   8.690  0.1932E+01  0.2835E+02
   8.700  0.1814E+01  0.2837E+02
   8.710  0.1746E+01  0.2839E+02
   8.720  0.1675E+01  0.2841E+02
   8.730  0.1620E+01  0.2842E+02
   8.740  0.1595E+01  0.2844E+02
   8.750  0.1577E+01  0.2846E+02
   8.760  0.1558E+01  0.2847E+02
   8.770  0.1514E+01  0.2849E+02
   8.780  0.1488E+01  0.2850E+02
   8.790  0.1451E+01  0.2852E+02
   8.800  0.1421E+01  0.2853E+02
   8.810  0.1405E+01  0.2855E+02
   8.820  0.1389E+01  0.2856E+02
   8.830  0.1373E+01  0.2857E+02
   8.840  0.1369E+01  0.2859E+02
   8.850  0.1357E+01  0.2860E+02
   8.860  0.1348E+01  0.2861E+02
   8.870  0.1322E+01  0.2863E+02
   8.880  0.1299E+01  0.2864E+02
   8.890  0.1285E+01  0.2865E+02
   8.900  0.1279E+01  0.2867E+02
   8.910  0.1273E+01  0.2868E+02
   8.920  0.1276E+01  0.2869E+02
   8.930  0.1274E+01  0.2870E+02
   8.940  0.1241E+01  0.2872E+02
   8.950  0.1213E+01  0.2873E+02
   8.960  0.1188E+01  0.2874E+02
   8.970  0.1171E+01  0.2875E+02
   8.980  0.1150E+01  0.2876E+02
   8.990  0.1112E+01  0.2878E+02
   9.000  0.1083E+01  0.2879E+02
   9.010  0.1054E+01  0.2880E+02
   9.020  0.9894E+00  0.2881E+02
   9.030  0.9717E+00  0.2882E+02
   9.040  0.9525E+00  0.2883E+02
   9.050  0.9381E+00  0.2884E+02
   9.060  0.9272E+00  0.2885E+02
   9.070  0.9191E+00  0.2886E+02
   9.080  0.9170E+00  0.2886E+02
   9.090  0.9160E+00  0.2887E+02
   9.100  0.9223E+00  0.2888E+02
   9.110  0.9348E+00  0.2889E+02
   9.120  0.9483E+00  0.2890E+02
   9.130  0.9625E+00  0.2891E+02
   9.140  0.9784E+00  0.2892E+02
   9.150  0.9973E+00  0.2893E+02
   9.160  0.1020E+01  0.2894E+02
   9.170  0.1045E+01  0.2895E+02
   9.180  0.1067E+01  0.2896E+02
   9.190  0.1088E+01  0.2897E+02
   9.200  0.1101E+01  0.2898E+02
   9.210  0.1109E+01  0.2899E+02
   9.220  0.1119E+01  0.2901E+02
   9.230  0.1126E+01  0.2902E+02
   9.240  0.1131E+01  0.2903E+02
   9.250  0.1139E+01  0.2904E+02
   9.260  0.1146E+01  0.2905E+02
   9.270  0.1156E+01  0.2906E+02
   9.280  0.1174E+01  0.2907E+02
   9.290  0.1166E+01  0.2909E+02
   9.300  0.1172E+01  0.2910E+02
   9.310  0.1182E+01  0.2911E+02
   9.320  0.1195E+01  0.2912E+02
   9.330  0.1207E+01  0.2913E+02
   9.340  0.1211E+01  0.2915E+02
   9.350  0.1221E+01  0.2916E+02
   9.360  0.1232E+01  0.2917E+02
   9.370  0.1245E+01  0.2918E+02
   9.380  0.1258E+01  0.2919E+02
   9.390  0.1269E+01  0.2921E+02
   9.400  0.1282E+01  0.2922E+02
   9.410  0.1294E+01  0.2923E+02
   9.420  0.1308E+01  0.2925E+02
   9.430  0.1322E+01  0.2926E+02
   9.440  0.1340E+01  0.2927E+02
   9.450  0.1354E+01  0.2929E+02
   9.460  0.1371E+01  0.2930E+02
   9.470  0.1386E+01  0.2931E+02
   9.480  0.1398E+01  0.2933E+02
   9.490  0.1423E+01  0.2934E+02
   9.500  0.1430E+01  0.2936E+02
   9.510  0.1436E+01  0.2937E+02
   9.520  0.1443E+01  0.2938E+02
   9.530  0.1438E+01  0.2940E+02
   9.540  0.1432E+01  0.2941E+02
   9.550  0.1427E+01  0.2943E+02
   9.560  0.1424E+01  0.2944E+02
   9.570  0.1405E+01  0.2946E+02
   9.580  0.1401E+01  0.2947E+02
   9.590  0.1390E+01  0.2948E+02
   9.600  0.1390E+01  0.2950E+02
   9.610  0.1387E+01  0.2951E+02
   9.620  0.1385E+01  0.2953E+02
   9.630  0.1388E+01  0.2954E+02
   9.640  0.1382E+01  0.2955E+02
   9.650  0.1377E+01  0.2957E+02
   9.660  0.1367E+01  0.2958E+02
   9.670  0.1360E+01  0.2959E+02
   9.680  0.1365E+01  0.2961E+02
   9.690  0.1371E+01  0.2962E+02
   9.700  0.1371E+01  0.2964E+02
   9.710  0.1371E+01  0.2965E+02
   9.720  0.1374E+01  0.2966E+02
   9.730  0.1384E+01  0.2968E+02
   9.740  0.1396E+01  0.2969E+02
   9.750  0.1401E+01  0.2970E+02
   9.760  0.1387E+01  0.2972E+02
   9.770  0.1377E+01  0.2973E+02
   9.780  0.1374E+01  0.2975E+02
   9.790  0.1330E+01  0.2976E+02
   9.800  0.1227E+01  0.2977E+02
   9.810  0.1139E+01  0.2978E+02
   9.820  0.1076E+01  0.2980E+02
   9.830  0.1020E+01  0.2981E+02
   9.840  0.9578E+00  0.2982E+02
   9.850  0.8639E+00  0.2982E+02
   9.860  0.8085E+00  0.2983E+02
   9.870  0.7901E+00  0.2984E+02
   9.880  0.7551E+00  0.2985E+02
   9.890  0.7325E+00  0.2986E+02
   9.900  0.7178E+00  0.2986E+02
   9.910  0.7016E+00  0.2987E+02
   9.920  0.6826E+00  0.2988E+02
   9.930  0.6729E+00  0.2988E+02
   9.940  0.6627E+00  0.2989E+02
   9.950  0.6479E+00  0.2990E+02
   9.960  0.6415E+00  0.2990E+02
   9.970  0.6305E+00  0.2991E+02
   9.980  0.6314E+00  0.2992E+02
   9.990  0.6175E+00  0.2992E+02
  10.000  0.6107E+00  0.2993E+02
  10.010  0.6050E+00  0.2993E+02
  10.020  0.5782E+00  0.2994E+02
  10.030  0.5717E+00  0.2995E+02
  10.040  0.5463E+00  0.2995E+02
  10.050  0.4929E+00  0.2996E+02
  10.060  0.4375E+00  0.2996E+02
  10.070  0.3801E+00  0.2997E+02
  10.080  0.3351E+00  0.2997E+02
  10.090  0.3081E+00  0.2997E+02
  10.100  0.2777E+00  0.2998E+02
  10.110  0.2538E+00  0.2998E+02
  10.120  0.2259E+00  0.2998E+02
  10.130  0.2109E+00  0.2998E+02
  10.140  0.1973E+00  0.2999E+02
  10.150  0.1864E+00  0.2999E+02
  10.160  0.1760E+00  0.2999E+02
  10.170  0.1540E+00  0.2999E+02
  10.180  0.1387E+00  0.2999E+02
  10.190  0.1268E+00  0.2999E+02
  10.200  0.1154E+00  0.2999E+02
  10.210  0.1183E+00  0.3000E+02
  10.220  0.1018E+00  0.3000E+02
  10.230  0.8091E-01  0.3000E+02
  10.240  0.7536E-01  0.3000E+02
  10.250  0.5401E-01  0.3000E+02
  10.260  0.3373E-01  0.3000E+02
  10.270  0.1754E-01  0.3000E+02
  10.280  0.5905E-02  0.3000E+02
  10.290  0.6187E-03  0.3000E+02
  10.300  0.0000E+00  0.3000E+02
  10.310  0.0000E+00  0.3000E+02
  10.320  0.0000E+00  0.3000E+02
  10.330  0.0000E+00  0.3000E+02
  10.340  0.0000E+00  0.3000E+02
  10.350  0.0000E+00  0.3000E+02
  10.360  0.0000E+00  0.3000E+02
  10.370  0.0000E+00  0.3000E+02
  10.380  0.0000E+00  0.3000E+02
  10.390  0.0000E+00  0.3000E+02
  10.400  0.0000E+00  0.3000E+02
  10.410  0.0000E+00  0.3000E+02
  10.420  0.0000E+00  0.3000E+02
  10.430  0.0000E+00  0.3000E+02
  10.440  0.0000E+00  0.3000E+02
  10.450  0.0000E+00  0.3000E+02
  10.460  0.0000E+00  0.3000E+02
  10.470  0.0000E+00  0.3000E+02
  10.480  0.0000E+00  0.3000E+02
  10.490  0.0000E+00  0.3000E+02
  10.500  0.0000E+00  0.3000E+02
  10.510  0.0000E+00  0.3000E+02
  10.520  0.0000E+00  0.3000E+02
  10.530  0.0000E+00  0.3000E+02
  10.540  0.0000E+00  0.3000E+02
  10.550  0.0000E+00  0.3000E+02
  10.560  0.0000E+00  0.3000E+02
  10.570  0.0000E+00  0.3000E+02
  10.580  0.0000E+00  0.3000E+02
  10.590  0.0000E+00  0.3000E+02
  10.600  0.0000E+00  0.3000E+02
  10.610  0.0000E+00  0.3000E+02
  10.620  0.0000E+00  0.3000E+02
  10.630  0.0000E+00  0.3000E+02
  10.640  0.0000E+00  0.3000E+02
  10.650  0.0000E+00  0.3000E+02
  10.660  0.0000E+00  0.3000E+02
  10.670  0.0000E+00  0.3000E+02
  10.680  0.0000E+00  0.3000E+02
  10.690  0.0000E+00  0.3000E+02
  10.700  0.0000E+00  0.3000E+02
  10.710  0.0000E+00  0.3000E+02
  10.720  0.0000E+00  0.3000E+02
  10.730  0.0000E+00  0.3000E+02
  10.740  0.0000E+00  0.3000E+02
  10.750  0.0000E+00  0.3000E+02
  10.760  0.0000E+00  0.3000E+02
  10.770  0.0000E+00  0.3000E+02
  10.780  0.0000E+00  0.3000E+02
  10.790  0.0000E+00  0.3000E+02
  10.800  0.0000E+00  0.3000E+02
  10.810  0.0000E+00  0.3000E+02
  10.820  0.0000E+00  0.3000E+02
  10.830  0.0000E+00  0.3000E+02
  10.840  0.0000E+00  0.3000E+02
  10.850  0.0000E+00  0.3000E+02
  10.860  0.0000E+00  0.3000E+02
  10.870  0.1110E-01  0.3000E+02
  10.880  0.3648E-01  0.3000E+02
  10.890  0.4302E-01  0.3000E+02
  10.900  0.5038E-01  0.3000E+02
  10.910  0.4800E-01  0.3000E+02
  10.920  0.5472E-01  0.3000E+02
  10.930  0.6309E-01  0.3000E+02
  10.940  0.7230E-01  0.3000E+02
  10.950  0.8040E-01  0.3000E+02
  10.960  0.8679E-01  0.3001E+02
  10.970  0.9595E-01  0.3001E+02
  10.980  0.1010E+00  0.3001E+02
  10.990  0.1100E+00  0.3001E+02
  11.000  0.1189E+00  0.3001E+02
  11.010  0.1331E+00  0.3001E+02
  11.020  0.1526E+00  0.3001E+02
  11.030  0.1640E+00  0.3001E+02
  11.040  0.1733E+00  0.3002E+02
  11.050  0.1873E+00  0.3002E+02
  11.060  0.2149E+00  0.3002E+02
  11.070  0.2651E+00  0.3002E+02
  11.080  0.3232E+00  0.3002E+02
  11.090  0.3701E+00  0.3003E+02
  11.100  0.4058E+00  0.3003E+02
  11.110  0.4520E+00  0.3004E+02
  11.120  0.4961E+00  0.3004E+02
  11.130  0.5240E+00  0.3005E+02
  11.140  0.5578E+00  0.3005E+02
  11.150  0.5835E+00  0.3006E+02
  11.160  0.6113E+00  0.3006E+02
  11.170  0.6521E+00  0.3007E+02
  11.180  0.7071E+00  0.3008E+02
  11.190  0.7507E+00  0.3008E+02
  11.200  0.7964E+00  0.3009E+02
  11.210  0.8442E+00  0.3010E+02
  11.220  0.8794E+00  0.3011E+02
  11.230  0.9187E+00  0.3012E+02
  11.240  0.9707E+00  0.3013E+02
  11.250  0.1020E+01  0.3014E+02
  11.260  0.1085E+01  0.3015E+02
  11.270  0.1133E+01  0.3016E+02
  11.280  0.1218E+01  0.3017E+02
  11.290  0.1290E+01  0.3018E+02
  11.300  0.1355E+01  0.3020E+02
  11.310  0.1416E+01  0.3021E+02
  11.320  0.1530E+01  0.3022E+02
  11.330  0.1606E+01  0.3024E+02
  11.340  0.1663E+01  0.3026E+02
  11.350  0.1718E+01  0.3027E+02
  11.360  0.1769E+01  0.3029E+02
  11.370  0.1792E+01  0.3031E+02
  11.380  0.1806E+01  0.3033E+02
  11.390  0.1789E+01  0.3034E+02
  11.400  0.1792E+01  0.3036E+02
  11.410  0.1795E+01  0.3038E+02
  11.420  0.1806E+01  0.3040E+02
  11.430  0.1791E+01  0.3042E+02
  11.440  0.1789E+01  0.3043E+02
  11.450  0.1792E+01  0.3045E+02
  11.460  0.1794E+01  0.3047E+02
  11.470  0.1805E+01  0.3049E+02
  11.480  0.1820E+01  0.3051E+02
  11.490  0.1833E+01  0.3052E+02
  11.500  0.1846E+01  0.3054E+02
  11.510  0.1849E+01  0.3056E+02
  11.520  0.1861E+01  0.3058E+02
  11.530  0.1893E+01  0.3060E+02
  11.540  0.1901E+01  0.3062E+02
  11.550  0.1904E+01  0.3064E+02
  11.560  0.1915E+01  0.3066E+02
  11.570  0.1931E+01  0.3067E+02
  11.580  0.1946E+01  0.3069E+02
  11.590  0.1942E+01  0.3071E+02
  11.600  0.1919E+01  0.3073E+02
  11.610  0.1899E+01  0.3075E+02
  11.620  0.1881E+01  0.3077E+02
  11.630  0.1867E+01  0.3079E+02
  11.640  0.1855E+01  0.3081E+02
  11.650  0.1816E+01  0.3083E+02
  11.660  0.1776E+01  0.3084E+02
  11.670  0.1740E+01  0.3086E+02
  11.680  0.1709E+01  0.3088E+02
  11.690  0.1679E+01  0.3090E+02
  11.700  0.1650E+01  0.3091E+02
  11.710  0.1622E+01  0.3093E+02
  11.720  0.1594E+01  0.3095E+02
  11.730  0.1568E+01  0.3096E+02
  11.740  0.1549E+01  0.3098E+02
  11.750  0.1532E+01  0.3099E+02
  11.760  0.1515E+01  0.3101E+02
  11.770  0.1500E+01  0.3102E+02
  11.780  0.1484E+01  0.3104E+02
  11.790  0.1471E+01  0.3105E+02
  11.800  0.1459E+01  0.3107E+02
  11.810  0.1447E+01  0.3108E+02
  11.820  0.1435E+01  0.3110E+02
  11.830  0.1425E+01  0.3111E+02
  11.840  0.1415E+01  0.3112E+02
  11.850  0.1406E+01  0.3114E+02
  11.860  0.1397E+01  0.3115E+02
  11.870  0.1388E+01  0.3117E+02
  11.880  0.1380E+01  0.3118E+02
  11.890  0.1373E+01  0.3119E+02
  11.900  0.1365E+01  0.3121E+02
  11.910  0.1358E+01  0.3122E+02
  11.920  0.1351E+01  0.3123E+02
  11.930  0.1344E+01  0.3125E+02
  11.940  0.1338E+01  0.3126E+02
  11.950  0.1332E+01  0.3127E+02
  11.960  0.1328E+01  0.3129E+02
  11.970  0.1324E+01  0.3130E+02
  11.980  0.1320E+01  0.3131E+02
  11.990  0.1315E+01  0.3133E+02
  12.000  0.1311E+01  0.3134E+02
  12.010  0.1307E+01  0.3135E+02
  12.020  0.1302E+01  0.3137E+02
  12.030  0.1297E+01  0.3138E+02
  12.040  0.1292E+01  0.3139E+02
  12.050  0.1288E+01  0.3141E+02
  12.060  0.1284E+01  0.3142E+02
  12.070  0.1280E+01  0.3143E+02
  12.080  0.1275E+01  0.3144E+02
  12.090  0.1270E+01  0.3146E+02
  12.100  0.1265E+01  0.3147E+02
  12.110  0.1261E+01  0.3148E+02
  12.120  0.1258E+01  0.3149E+02
  12.130  0.1255E+01  0.3151E+02
  12.140  0.1251E+01  0.3152E+02
  12.150  0.1249E+01  0.3153E+02
  12.160  0.1246E+01  0.3154E+02
  12.170  0.1243E+01  0.3156E+02
  12.180  0.1241E+01  0.3157E+02
  12.190  0.1238E+01  0.3158E+02
  12.200  0.1236E+01  0.3159E+02
  12.210  0.1234E+01  0.3161E+02
  12.220  0.1232E+01  0.3162E+02
  12.230  0.1230E+01  0.3163E+02
  12.240  0.1228E+01  0.3164E+02
  12.250  0.1227E+01  0.3166E+02
  12.260  0.1225E+01  0.3167E+02
  12.270  0.1223E+01  0.3168E+02
  12.280  0.1222E+01  0.3169E+02
  12.290  0.1220E+01  0.3171E+02
  12.300  0.1219E+01  0.3172E+02
  12.310  0.1218E+01  0.3173E+02
  12.320  0.1217E+01  0.3174E+02
  12.330  0.1217E+01  0.3175E+02
  12.340  0.1216E+01  0.3177E+02
  12.350  0.1218E+01  0.3178E+02
  12.360  0.1217E+01  0.3179E+02
  12.370  0.1217E+01  0.3180E+02
  12.380  0.1215E+01  0.3181E+02
  12.390  0.1214E+01  0.3183E+02
  12.400  0.1213E+01  0.3184E+02
  12.410  0.1212E+01  0.3185E+02
  12.420  0.1211E+01  0.3186E+02
  12.430  0.1210E+01  0.3188E+02
  12.440  0.1210E+01  0.3189E+02
  12.450  0.1208E+01  0.3190E+02
  12.460  0.1206E+01  0.3191E+02
  12.470  0.1205E+01  0.3192E+02
  12.480  0.1205E+01  0.3194E+02
  12.490  0.1204E+01  0.3195E+02
  12.500  0.1204E+01  0.3196E+02
  12.510  0.1204E+01  0.3197E+02
  12.520  0.1204E+01  0.3198E+02
  12.530  0.1205E+01  0.3200E+02
  12.540  0.1205E+01  0.3201E+02
  12.550  0.1205E+01  0.3202E+02
  12.560  0.1206E+01  0.3203E+02
  12.570  0.1206E+01  0.3204E+02
  12.580  0.1207E+01  0.3206E+02
  12.590  0.1207E+01  0.3207E+02
  12.600  0.1208E+01  0.3208E+02
  12.610  0.1209E+01  0.3209E+02
  12.620  0.1210E+01  0.3210E+02
  12.630  0.1211E+01  0.3212E+02
  12.640  0.1212E+01  0.3213E+02
  12.650  0.1214E+01  0.3214E+02
  12.660  0.1217E+01  0.3215E+02
  12.670  0.1236E+01  0.3217E+02
  12.680  0.1264E+01  0.3218E+02
  12.690  0.1285E+01  0.3219E+02
  12.700  0.1296E+01  0.3220E+02
  12.710  0.1321E+01  0.3222E+02
  12.720  0.1326E+01  0.3223E+02
  12.730  0.1335E+01  0.3224E+02
  12.740  0.1345E+01  0.3226E+02
  12.750  0.1361E+01  0.3227E+02
  12.760  0.1372E+01  0.3228E+02
  12.770  0.1382E+01  0.3230E+02
  12.780  0.1391E+01  0.3231E+02
  12.790  0.1402E+01  0.3233E+02
  12.800  0.1416E+01  0.3234E+02
  12.810  0.1422E+01  0.3235E+02
  12.820  0.1431E+01  0.3237E+02
  12.830  0.1442E+01  0.3238E+02
  12.840  0.1454E+01  0.3240E+02
  12.850  0.1471E+01  0.3241E+02
  12.860  0.1486E+01  0.3243E+02
  12.870  0.1492E+01  0.3244E+02
  12.880  0.1503E+01  0.3246E+02
  12.890  0.1515E+01  0.3247E+02
  12.900  0.1528E+01  0.3249E+02
  12.910  0.1542E+01  0.3250E+02
  12.920  0.1566E+01  0.3252E+02
  12.930  0.1576E+01  0.3253E+02
  12.940  0.1592E+01  0.3255E+02
  12.950  0.1609E+01  0.3256E+02
  12.960  0.1627E+01  0.3258E+02
  12.970  0.1647E+01  0.3260E+02
  12.980  0.1669E+01  0.3261E+02
  12.990  0.1698E+01  0.3263E+02
  13.000  0.1721E+01  0.3265E+02
  13.010  0.1745E+01  0.3267E+02
  13.020  0.1779E+01  0.3268E+02
  13.030  0.1813E+01  0.3270E+02
  13.040  0.1859E+01  0.3272E+02
  13.050  0.1923E+01  0.3274E+02
  13.060  0.2003E+01  0.3276E+02
  13.070  0.2081E+01  0.3278E+02
  13.080  0.2110E+01  0.3280E+02
  13.090  0.2134E+01  0.3282E+02
  13.100  0.2076E+01  0.3284E+02
  13.110  0.2014E+01  0.3286E+02
  13.120  0.1993E+01  0.3288E+02
  13.130  0.1994E+01  0.3290E+02
  13.140  0.2001E+01  0.3292E+02
  13.150  0.2012E+01  0.3294E+02
  13.160  0.2021E+01  0.3296E+02
  13.170  0.2031E+01  0.3298E+02
  13.180  0.2036E+01  0.3300E+02
  13.190  0.2009E+01  0.3302E+02
  13.200  0.1954E+01  0.3304E+02
  13.210  0.1867E+01  0.3306E+02
  13.220  0.1810E+01  0.3308E+02
  13.230  0.1769E+01  0.3310E+02
  13.240  0.1729E+01  0.3312E+02
  13.250  0.1701E+01  0.3313E+02
  13.260  0.1692E+01  0.3315E+02
  13.270  0.1679E+01  0.3317E+02
  13.280  0.1676E+01  0.3318E+02
  13.290  0.1674E+01  0.3320E+02
  13.300  0.1692E+01  0.3322E+02
  13.310  0.1707E+01  0.3323E+02
  13.320  0.1737E+01  0.3325E+02
  13.330  0.1754E+01  0.3327E+02
  13.340  0.1756E+01  0.3329E+02
  13.350  0.1666E+01  0.3330E+02
  13.360  0.1603E+01  0.3332E+02
  13.370  0.1436E+01  0.3333E+02
  13.380  0.1242E+01  0.3335E+02
  13.390  0.1107E+01  0.3336E+02
  13.400  0.1087E+01  0.3337E+02
  13.410  0.1073E+01  0.3338E+02
  13.420  0.1063E+01  0.3339E+02
  13.430  0.1058E+01  0.3340E+02
  13.440  0.1047E+01  0.3341E+02
  13.450  0.1040E+01  0.3342E+02
  13.460  0.1037E+01  0.3343E+02
  13.470  0.1027E+01  0.3344E+02
  13.480  0.1020E+01  0.3345E+02
  13.490  0.1016E+01  0.3346E+02
  13.500  0.1014E+01  0.3348E+02
  13.510  0.1017E+01  0.3349E+02
  13.520  0.1020E+01  0.3350E+02
  13.530  0.1023E+01  0.3351E+02
  13.540  0.1024E+01  0.3352E+02
  13.550  0.1027E+01  0.3353E+02
  13.560  0.1032E+01  0.3354E+02
  13.570  0.1041E+01  0.3355E+02
  13.580  0.1058E+01  0.3356E+02
  13.590  0.1066E+01  0.3357E+02
  13.600  0.1082E+01  0.3358E+02
  13.610  0.1111E+01  0.3359E+02
  13.620  0.1143E+01  0.3360E+02
  13.630  0.1170E+01  0.3361E+02
  13.640  0.1166E+01  0.3362E+02
  13.650  0.1139E+01  0.3364E+02
  13.660  0.1139E+01  0.3365E+02
  13.670  0.1141E+01  0.3366E+02
  13.680  0.1147E+01  0.3367E+02
  13.690  0.1126E+01  0.3368E+02
  13.700  0.1125E+01  0.3369E+02
  13.710  0.1126E+01  0.3370E+02
  13.720  0.1132E+01  0.3372E+02
  13.730  0.1146E+01  0.3373E+02
  13.740  0.1152E+01  0.3374E+02
  13.750  0.1152E+01  0.3375E+02
  13.760  0.1149E+01  0.3376E+02
  13.770  0.1152E+01  0.3377E+02
  13.780  0.1150E+01  0.3378E+02
  13.790  0.1153E+01  0.3380E+02
  13.800  0.1162E+01  0.3381E+02
  13.810  0.1182E+01  0.3382E+02
  13.820  0.1186E+01  0.3383E+02
  13.830  0.1191E+01  0.3384E+02
  13.840  0.1195E+01  0.3385E+02
  13.850  0.1194E+01  0.3387E+02
  13.860  0.1196E+01  0.3388E+02
  13.870  0.1201E+01  0.3389E+02
  13.880  0.1209E+01  0.3390E+02
  13.890  0.1232E+01  0.3391E+02
  13.900  0.1244E+01  0.3393E+02
  13.910  0.1250E+01  0.3394E+02
  13.920  0.1259E+01  0.3395E+02
  13.930  0.1273E+01  0.3396E+02
  13.940  0.1280E+01  0.3398E+02
  13.950  0.1284E+01  0.3399E+02
  13.960  0.1296E+01  0.3400E+02
  13.970  0.1319E+01  0.3402E+02
  13.980  0.1340E+01  0.3403E+02
  13.990  0.1369E+01  0.3404E+02
  14.000  0.1395E+01  0.3406E+02
  14.010  0.1391E+01  0.3407E+02
  14.020  0.1406E+01  0.3408E+02
  14.030  0.1417E+01  0.3410E+02
  14.040  0.1426E+01  0.3411E+02
  14.050  0.1444E+01  0.3413E+02
  14.060  0.1458E+01  0.3414E+02
  14.070  0.1462E+01  0.3416E+02
  14.080  0.1470E+01  0.3417E+02
  14.090  0.1477E+01  0.3419E+02
  14.100  0.1489E+01  0.3420E+02
  14.110  0.1493E+01  0.3422E+02
  14.120  0.1506E+01  0.3423E+02
  14.130  0.1527E+01  0.3425E+02
  14.140  0.1549E+01  0.3426E+02
  14.150  0.1569E+01  0.3428E+02
  14.160  0.1601E+01  0.3429E+02
  14.170  0.1631E+01  0.3431E+02
  14.180  0.1663E+01  0.3433E+02
  14.190  0.1668E+01  0.3434E+02
  14.200  0.1655E+01  0.3436E+02
  14.210  0.1645E+01  0.3438E+02
  14.220  0.1633E+01  0.3439E+02
  14.230  0.1615E+01  0.3441E+02
  14.240  0.1596E+01  0.3442E+02
  14.250  0.1575E+01  0.3444E+02
  14.260  0.1550E+01  0.3446E+02
  14.270  0.1526E+01  0.3447E+02
  14.280  0.1513E+01  0.3449E+02
  14.290  0.1495E+01  0.3450E+02
  14.300  0.1483E+01  0.3452E+02
  14.310  0.1470E+01  0.3453E+02
  14.320  0.1454E+01  0.3455E+02
  14.330  0.1443E+01  0.3456E+02
  14.340  0.1430E+01  0.3457E+02
  14.350  0.1407E+01  0.3459E+02
  14.360  0.1386E+01  0.3460E+02
  14.370  0.1365E+01  0.3462E+02
  14.380  0.1345E+01  0.3463E+02
  14.390  0.1321E+01  0.3464E+02
  14.400  0.1300E+01  0.3466E+02
  14.410  0.1279E+01  0.3467E+02
  14.420  0.1260E+01  0.3468E+02
  14.430  0.1242E+01  0.3469E+02
  14.440  0.1226E+01  0.3471E+02
  14.450  0.1209E+01  0.3472E+02
  14.460  0.1196E+01  0.3473E+02
  14.470  0.1183E+01  0.3474E+02
  14.480  0.1171E+01  0.3475E+02
  14.490  0.1155E+01  0.3477E+02
  14.500  0.1141E+01  0.3478E+02
  14.510  0.1129E+01  0.3479E+02
  14.520  0.1118E+01  0.3480E+02
  14.530  0.1107E+01  0.3481E+02
  14.540  0.1097E+01  0.3482E+02
  14.550  0.1087E+01  0.3483E+02
  14.560  0.1077E+01  0.3484E+02
  14.570  0.1068E+01  0.3485E+02
  14.580  0.1059E+01  0.3487E+02
  14.590  0.1050E+01  0.3488E+02
  14.600  0.1042E+01  0.3489E+02
  14.610  0.1035E+01  0.3490E+02
  14.620  0.1027E+01  0.3491E+02
  14.630  0.1019E+01  0.3492E+02
  14.640  0.1010E+01  0.3493E+02
  14.650  0.9985E+00  0.3494E+02
  14.660  0.9899E+00  0.3495E+02
  14.670  0.9807E+00  0.3496E+02
  14.680  0.9722E+00  0.3497E+02
  14.690  0.9640E+00  0.3498E+02
  14.700  0.9562E+00  0.3499E+02
  14.710  0.9496E+00  0.3500E+02
  14.720  0.9445E+00  0.3501E+02
  14.730  0.9384E+00  0.3501E+02
  14.740  0.9326E+00  0.3502E+02
  14.750  0.9266E+00  0.3503E+02
  14.760  0.9205E+00  0.3504E+02
  14.770  0.9143E+00  0.3505E+02
  14.780  0.9086E+00  0.3506E+02
  14.790  0.9035E+00  0.3507E+02
  14.800  0.8977E+00  0.3508E+02
  14.810  0.8915E+00  0.3509E+02
  14.820  0.8866E+00  0.3510E+02
  14.830  0.8817E+00  0.3511E+02
  14.840  0.8763E+00  0.3511E+02
  14.850  0.8711E+00  0.3512E+02
  14.860  0.8667E+00  0.3513E+02
  14.870  0.8630E+00  0.3514E+02
  14.880  0.8606E+00  0.3515E+02
  14.890  0.8590E+00  0.3516E+02
  14.900  0.8571E+00  0.3517E+02
  14.910  0.8579E+00  0.3517E+02
  14.920  0.8661E+00  0.3518E+02
  14.930  0.8857E+00  0.3519E+02
  14.940  0.8979E+00  0.3520E+02
  14.950  0.9120E+00  0.3521E+02
  14.960  0.9341E+00  0.3522E+02
  14.970  0.9621E+00  0.3523E+02
  14.980  0.9697E+00  0.3524E+02
  14.990  0.9698E+00  0.3525E+02
  15.000  0.9738E+00  0.3526E+02
  15.010  0.9803E+00  0.3527E+02
  15.020  0.9910E+00  0.3528E+02
  15.030  0.1005E+01  0.3529E+02
  15.040  0.1013E+01  0.3530E+02
  15.050  0.1021E+01  0.3531E+02
  15.060  0.1026E+01  0.3532E+02
  15.070  0.1029E+01  0.3533E+02
  15.080  0.1036E+01  0.3534E+02
  15.090  0.1045E+01  0.3535E+02
  15.100  0.1060E+01  0.3536E+02
  15.110  0.1091E+01  0.3537E+02
  15.120  0.1129E+01  0.3538E+02
  15.130  0.1167E+01  0.3539E+02
  15.140  0.1197E+01  0.3540E+02
  15.150  0.1221E+01  0.3542E+02
  15.160  0.1258E+01  0.3543E+02
  15.170  0.1300E+01  0.3544E+02
  15.180  0.1365E+01  0.3546E+02
  15.190  0.1393E+01  0.3547E+02
  15.200  0.1397E+01  0.3548E+02
  15.210  0.1410E+01  0.3550E+02
  15.220  0.1423E+01  0.3551E+02
  15.230  0.1429E+01  0.3553E+02
  15.240  0.1437E+01  0.3554E+02
  15.250  0.1441E+01  0.3555E+02
  15.260  0.1451E+01  0.3557E+02
  15.270  0.1460E+01  0.3558E+02
  15.280  0.1493E+01  0.3560E+02
  15.290  0.1573E+01  0.3561E+02
  15.300  0.1660E+01  0.3563E+02
  15.310  0.1628E+01  0.3565E+02
  15.320  0.1615E+01  0.3566E+02
  15.330  0.1627E+01  0.3568E+02
  15.340  0.1602E+01  0.3569E+02
  15.350  0.1614E+01  0.3571E+02
  15.360  0.1599E+01  0.3573E+02
  15.370  0.1584E+01  0.3574E+02
  15.380  0.1578E+01  0.3576E+02
  15.390  0.1578E+01  0.3577E+02
  15.400  0.1584E+01  0.3579E+02
  15.410  0.1595E+01  0.3581E+02
  15.420  0.1595E+01  0.3582E+02
  15.430  0.1599E+01  0.3584E+02
  15.440  0.1601E+01  0.3585E+02
  15.450  0.1602E+01  0.3587E+02
  15.460  0.1600E+01  0.3589E+02
  15.470  0.1603E+01  0.3590E+02
  15.480  0.1617E+01  0.3592E+02
  15.490  0.1641E+01  0.3593E+02
  15.500  0.1658E+01  0.3595E+02
  15.510  0.1667E+01  0.3597E+02
  15.520  0.1671E+01  0.3598E+02
  15.530  0.1687E+01  0.3600E+02
  15.540  0.1678E+01  0.3602E+02
  15.550  0.1661E+01  0.3603E+02
  15.560  0.1657E+01  0.3605E+02
  15.570  0.1660E+01  0.3607E+02
  15.580  0.1666E+01  0.3608E+02
  15.590  0.1671E+01  0.3610E+02
  15.600  0.1673E+01  0.3612E+02
  15.610  0.1675E+01  0.3613E+02
  15.620  0.1676E+01  0.3615E+02
  15.630  0.1675E+01  0.3617E+02
  15.640  0.1673E+01  0.3618E+02
  15.650  0.1672E+01  0.3620E+02
  15.660  0.1672E+01  0.3622E+02
  15.670  0.1674E+01  0.3623E+02
  15.680  0.1679E+01  0.3625E+02
  15.690  0.1682E+01  0.3627E+02
  15.700  0.1684E+01  0.3629E+02
  15.710  0.1686E+01  0.3630E+02
  15.720  0.1693E+01  0.3632E+02
  15.730  0.1701E+01  0.3634E+02
  15.740  0.1702E+01  0.3635E+02
  15.750  0.1704E+01  0.3637E+02
  15.760  0.1701E+01  0.3639E+02
  15.770  0.1693E+01  0.3640E+02
  15.780  0.1684E+01  0.3642E+02
  15.790  0.1680E+01  0.3644E+02
  15.800  0.1673E+01  0.3645E+02
  15.810  0.1666E+01  0.3647E+02
  15.820  0.1656E+01  0.3649E+02
  15.830  0.1643E+01  0.3650E+02
  15.840  0.1631E+01  0.3652E+02
  15.850  0.1623E+01  0.3654E+02
  15.860  0.1616E+01  0.3655E+02
  15.870  0.1611E+01  0.3657E+02
  15.880  0.1609E+01  0.3659E+02
  15.890  0.1602E+01  0.3660E+02
  15.900  0.1590E+01  0.3662E+02
  15.910  0.1579E+01  0.3663E+02
  15.920  0.1567E+01  0.3665E+02
  15.930  0.1558E+01  0.3666E+02
  15.940  0.1545E+01  0.3668E+02
  15.950  0.1537E+01  0.3670E+02
  15.960  0.1531E+01  0.3671E+02
  15.970  0.1528E+01  0.3673E+02
  15.980  0.1531E+01  0.3674E+02
  15.990  0.1531E+01  0.3676E+02
  16.000  0.1498E+01  0.3677E+02
  16.010  0.1449E+01  0.3679E+02
  16.020  0.1419E+01  0.3680E+02
  16.030  0.1376E+01  0.3681E+02
  16.040  0.1336E+01  0.3683E+02
  16.050  0.1320E+01  0.3684E+02
  16.060  0.1289E+01  0.3685E+02
  16.070  0.1259E+01  0.3687E+02
  16.080  0.1240E+01  0.3688E+02
  16.090  0.1222E+01  0.3689E+02
  16.100  0.1208E+01  0.3690E+02
  16.110  0.1194E+01  0.3692E+02
  16.120  0.1198E+01  0.3693E+02
  16.130  0.1204E+01  0.3694E+02
  16.140  0.1189E+01  0.3695E+02
  16.150  0.1189E+01  0.3696E+02
  16.160  0.1190E+01  0.3698E+02
  16.170  0.1190E+01  0.3699E+02
  16.180  0.1183E+01  0.3700E+02
  16.190  0.1177E+01  0.3701E+02
  16.200  0.1171E+01  0.3702E+02
  16.210  0.1262E+01  0.3704E+02
  16.220  0.1344E+01  0.3705E+02
  16.230  0.1375E+01  0.3706E+02
  16.240  0.1356E+01  0.3708E+02
  16.250  0.1325E+01  0.3709E+02
  16.260  0.1316E+01  0.3710E+02
  16.270  0.1282E+01  0.3712E+02
  16.280  0.1255E+01  0.3713E+02
  16.290  0.1239E+01  0.3714E+02
  16.300  0.1242E+01  0.3715E+02
  16.310  0.1271E+01  0.3717E+02
  16.320  0.1322E+01  0.3718E+02
  16.330  0.1290E+01  0.3719E+02
  16.340  0.1263E+01  0.3720E+02
  16.350  0.1245E+01  0.3722E+02
  16.360  0.1237E+01  0.3723E+02
  16.370  0.1231E+01  0.3724E+02
  16.380  0.1229E+01  0.3725E+02
  16.390  0.1234E+01  0.3727E+02
  16.400  0.1237E+01  0.3728E+02
  16.410  0.1243E+01  0.3729E+02
  16.420  0.1238E+01  0.3730E+02
  16.430  0.1250E+01  0.3732E+02
  16.440  0.1233E+01  0.3733E+02
  16.450  0.1224E+01  0.3734E+02
  16.460  0.1220E+01  0.3735E+02
  16.470  0.1216E+01  0.3737E+02
  16.480  0.1210E+01  0.3738E+02
  16.490  0.1206E+01  0.3739E+02
  16.500  0.1204E+01  0.3740E+02
  16.510  0.1206E+01  0.3741E+02
  16.520  0.1205E+01  0.3743E+02
  16.530  0.1200E+01  0.3744E+02
  16.540  0.1199E+01  0.3745E+02
  16.550  0.1198E+01  0.3746E+02
  16.560  0.1197E+01  0.3747E+02
  16.570  0.1198E+01  0.3749E+02
  16.580  0.1199E+01  0.3750E+02
  16.590  0.1199E+01  0.3751E+02
  16.600  0.1199E+01  0.3752E+02
  16.610  0.1198E+01  0.3753E+02
  16.620  0.1196E+01  0.3755E+02
  16.630  0.1194E+01  0.3756E+02
  16.640  0.1194E+01  0.3757E+02
  16.650  0.1199E+01  0.3758E+02
  16.660  0.1199E+01  0.3759E+02
  16.670  0.1191E+01  0.3761E+02
  16.680  0.1183E+01  0.3762E+02
  16.690  0.1168E+01  0.3763E+02
  16.700  0.1152E+01  0.3764E+02
  16.710  0.1136E+01  0.3765E+02
  16.720  0.1121E+01  0.3766E+02
  16.730  0.1107E+01  0.3767E+02
  16.740  0.1099E+01  0.3769E+02
  16.750  0.1094E+01  0.3770E+02
  16.760  0.1086E+01  0.3771E+02
  16.770  0.1077E+01  0.3772E+02
  16.780  0.1067E+01  0.3773E+02
  16.790  0.1056E+01  0.3774E+02
  16.800  0.1041E+01  0.3775E+02
  16.810  0.1027E+01  0.3776E+02
  16.820  0.1013E+01  0.3777E+02
  16.830  0.1001E+01  0.3778E+02
  16.840  0.9966E+00  0.3779E+02
  16.850  0.9851E+00  0.3780E+02
  16.860  0.9728E+00  0.3781E+02
  16.870  0.9572E+00  0.3782E+02
  16.880  0.9488E+00  0.3783E+02
  16.890  0.9434E+00  0.3784E+02
  16.900  0.9542E+00  0.3785E+02
  16.910  0.9445E+00  0.3786E+02
  16.920  0.9339E+00  0.3787E+02
  16.930  0.9269E+00  0.3788E+02
  16.940  0.9240E+00  0.3789E+02
  16.950  0.9242E+00  0.3789E+02
  16.960  0.9251E+00  0.3790E+02
  16.970  0.9289E+00  0.3791E+02
  16.980  0.9249E+00  0.3792E+02
  16.990  0.9282E+00  0.3793E+02
  17.000  0.9325E+00  0.3794E+02
  17.010  0.9350E+00  0.3795E+02
  17.020  0.9354E+00  0.3796E+02
  17.030  0.9377E+00  0.3797E+02
  17.040  0.9433E+00  0.3798E+02
  17.050  0.9567E+00  0.3799E+02
  17.060  0.9608E+00  0.3800E+02
  17.070  0.9511E+00  0.3801E+02
  17.080  0.9491E+00  0.3802E+02
  17.090  0.9468E+00  0.3803E+02
  17.100  0.9378E+00  0.3804E+02
  17.110  0.9314E+00  0.3805E+02
  17.120  0.9279E+00  0.3805E+02
  17.130  0.9308E+00  0.3806E+02
  17.140  0.9239E+00  0.3807E+02
  17.150  0.9226E+00  0.3808E+02
  17.160  0.9224E+00  0.3809E+02
  17.170  0.9168E+00  0.3810E+02
  17.180  0.9077E+00  0.3811E+02
  17.190  0.8981E+00  0.3812E+02
  17.200  0.8842E+00  0.3813E+02
  17.210  0.8721E+00  0.3814E+02
  17.220  0.8573E+00  0.3815E+02
  17.230  0.8545E+00  0.3815E+02
  17.240  0.8548E+00  0.3816E+02
  17.250  0.8553E+00  0.3817E+02
  17.260  0.8572E+00  0.3818E+02
  17.270  0.8598E+00  0.3819E+02
  17.280  0.8650E+00  0.3820E+02
  17.290  0.8541E+00  0.3821E+02
  17.300  0.8428E+00  0.3821E+02
  17.310  0.8315E+00  0.3822E+02
  17.320  0.8228E+00  0.3823E+02
  17.330  0.8150E+00  0.3824E+02
  17.340  0.8103E+00  0.3825E+02
  17.350  0.8079E+00  0.3825E+02
  17.360  0.8078E+00  0.3826E+02
  17.370  0.8087E+00  0.3827E+02
  17.380  0.8124E+00  0.3828E+02
  17.390  0.8145E+00  0.3829E+02
  17.400  0.8161E+00  0.3830E+02
  17.410  0.8182E+00  0.3830E+02
  17.420  0.8220E+00  0.3831E+02
  17.430  0.8345E+00  0.3832E+02
  17.440  0.8318E+00  0.3833E+02
  17.450  0.8291E+00  0.3834E+02
  17.460  0.8284E+00  0.3834E+02
  17.470  0.8284E+00  0.3835E+02
  17.480  0.8288E+00  0.3836E+02
  17.490  0.8280E+00  0.3837E+02
  17.500  0.8276E+00  0.3838E+02
  17.510  0.8295E+00  0.3839E+02
  17.520  0.8333E+00  0.3839E+02
  17.530  0.8367E+00  0.3840E+02
  17.540  0.8436E+00  0.3841E+02
  17.550  0.8492E+00  0.3842E+02
  17.560  0.8541E+00  0.3843E+02
  17.570  0.8526E+00  0.3844E+02
  17.580  0.8524E+00  0.3845E+02
  17.590  0.8545E+00  0.3845E+02
  17.600  0.8552E+00  0.3846E+02
  17.610  0.8583E+00  0.3847E+02
  17.620  0.8592E+00  0.3848E+02
  17.630  0.8605E+00  0.3849E+02
  17.640  0.8619E+00  0.3850E+02
  17.650  0.8634E+00  0.3851E+02
  17.660  0.8648E+00  0.3851E+02
  17.670  0.8664E+00  0.3852E+02
  17.680  0.8691E+00  0.3853E+02
  17.690  0.8698E+00  0.3854E+02
  17.700  0.8702E+00  0.3855E+02
  17.710  0.8714E+00  0.3856E+02
  17.720  0.8724E+00  0.3857E+02
  17.730  0.8735E+00  0.3857E+02
  17.740  0.8744E+00  0.3858E+02
  17.750  0.8755E+00  0.3859E+02
  17.760  0.8817E+00  0.3860E+02
  17.770  0.8846E+00  0.3861E+02
  17.780  0.8921E+00  0.3862E+02
  17.790  0.8886E+00  0.3863E+02
  17.800  0.8831E+00  0.3864E+02
  17.810  0.8833E+00  0.3865E+02
  17.820  0.8837E+00  0.3865E+02
  17.830  0.8887E+00  0.3866E+02
  17.840  0.8911E+00  0.3867E+02
  17.850  0.8912E+00  0.3868E+02
  17.860  0.8891E+00  0.3869E+02
  17.870  0.8902E+00  0.3870E+02
  17.880  0.8916E+00  0.3871E+02
  17.890  0.8928E+00  0.3872E+02
  17.900  0.8934E+00  0.3873E+02
  17.910  0.8939E+00  0.3873E+02
  17.920  0.8945E+00  0.3874E+02
  17.930  0.8946E+00  0.3875E+02
  17.940  0.8944E+00  0.3876E+02
  17.950  0.8946E+00  0.3877E+02
  17.960  0.8952E+00  0.3878E+02
  17.970  0.8967E+00  0.3879E+02
  17.980  0.8995E+00  0.3880E+02
  17.990  0.9008E+00  0.3881E+02
  18.000  0.9009E+00  0.3882E+02
  18.010  0.9015E+00  0.3882E+02
  18.020  0.9021E+00  0.3883E+02
  18.030  0.9031E+00  0.3884E+02
  18.040  0.9048E+00  0.3885E+02
  18.050  0.9077E+00  0.3886E+02
  18.060  0.9100E+00  0.3887E+02
  18.070  0.9113E+00  0.3888E+02
  18.080  0.9133E+00  0.3889E+02
  18.090  0.9162E+00  0.3890E+02
  18.100  0.9202E+00  0.3891E+02
  18.110  0.9232E+00  0.3892E+02
  18.120  0.9258E+00  0.3892E+02
  18.130  0.9289E+00  0.3893E+02
  18.140  0.9347E+00  0.3894E+02
  18.150  0.9393E+00  0.3895E+02
  18.160  0.9434E+00  0.3896E+02
  18.170  0.9474E+00  0.3897E+02
  18.180  0.9512E+00  0.3898E+02
  18.190  0.9609E+00  0.3899E+02
  18.200  0.9609E+00  0.3900E+02
  18.210  0.9629E+00  0.3901E+02
  18.220  0.9706E+00  0.3902E+02
  18.230  0.9793E+00  0.3903E+02
  18.240  0.9745E+00  0.3904E+02
  18.250  0.9743E+00  0.3905E+02
  18.260  0.9771E+00  0.3906E+02
  18.270  0.9856E+00  0.3907E+02
  18.280  0.9882E+00  0.3908E+02
  18.290  0.9865E+00  0.3909E+02
  18.300  0.9905E+00  0.3910E+02
  18.310  0.9947E+00  0.3911E+02
  18.320  0.9980E+00  0.3912E+02
  18.330  0.9914E+00  0.3913E+02
  18.340  0.9947E+00  0.3914E+02
  18.350  0.1001E+01  0.3915E+02
  18.360  0.9944E+00  0.3916E+02
  18.370  0.9939E+00  0.3917E+02
  18.380  0.9961E+00  0.3918E+02
  18.390  0.9997E+00  0.3919E+02
  18.400  0.1003E+01  0.3920E+02
  18.410  0.1007E+01  0.3921E+02
  18.420  0.1015E+01  0.3922E+02
  18.430  0.1025E+01  0.3923E+02
  18.440  0.1034E+01  0.3924E+02
  18.450  0.1033E+01  0.3925E+02
  18.460  0.1034E+01  0.3926E+02
  18.470  0.1040E+01  0.3927E+02
  18.480  0.1040E+01  0.3928E+02
  18.490  0.1046E+01  0.3929E+02
  18.500  0.1049E+01  0.3930E+02
  18.510  0.1049E+01  0.3931E+02
  18.520  0.1048E+01  0.3932E+02
  18.530  0.1051E+01  0.3933E+02
  18.540  0.1055E+01  0.3934E+02
  18.550  0.1059E+01  0.3935E+02
  18.560  0.1075E+01  0.3936E+02
  18.570  0.1079E+01  0.3937E+02
  18.580  0.1081E+01  0.3939E+02
  18.590  0.1086E+01  0.3940E+02
  18.600  0.1089E+01  0.3941E+02
  18.610  0.1094E+01  0.3942E+02
  18.620  0.1098E+01  0.3943E+02
  18.630  0.1103E+01  0.3944E+02
  18.640  0.1110E+01  0.3945E+02
  18.650  0.1121E+01  0.3946E+02
  18.660  0.1128E+01  0.3947E+02
  18.670  0.1136E+01  0.3948E+02
  18.680  0.1141E+01  0.3950E+02
  18.690  0.1145E+01  0.3951E+02
  18.700  0.1152E+01  0.3952E+02
  18.710  0.1158E+01  0.3953E+02
  18.720  0.1168E+01  0.3954E+02
  18.730  0.1173E+01  0.3955E+02
  18.740  0.1180E+01  0.3957E+02
  18.750  0.1185E+01  0.3958E+02
  18.760  0.1192E+01  0.3959E+02
  18.770  0.1197E+01  0.3960E+02
  18.780  0.1198E+01  0.3961E+02
  18.790  0.1203E+01  0.3963E+02
  18.800  0.1207E+01  0.3964E+02
  18.810  0.1209E+01  0.3965E+02
  18.820  0.1213E+01  0.3966E+02
  18.830  0.1218E+01  0.3967E+02
  18.840  0.1222E+01  0.3969E+02
  18.850  0.1228E+01  0.3970E+02
  18.860  0.1230E+01  0.3971E+02
  18.870  0.1234E+01  0.3972E+02
  18.880  0.1243E+01  0.3974E+02
  18.890  0.1246E+01  0.3975E+02
  18.900  0.1250E+01  0.3976E+02
  18.910  0.1256E+01  0.3977E+02
  18.920  0.1258E+01  0.3979E+02
  18.930  0.1263E+01  0.3980E+02
  18.940  0.1268E+01  0.3981E+02
  18.950  0.1279E+01  0.3982E+02
  18.960  0.1272E+01  0.3984E+02
  18.970  0.1273E+01  0.3985E+02
  18.980  0.1278E+01  0.3986E+02
  18.990  0.1280E+01  0.3987E+02
  19.000  0.1282E+01  0.3989E+02
  19.010  0.1289E+01  0.3990E+02
  19.020  0.1293E+01  0.3991E+02
  19.030  0.1297E+01  0.3993E+02
  19.040  0.1307E+01  0.3994E+02
  19.050  0.1315E+01  0.3995E+02
  19.060  0.1309E+01  0.3996E+02
  19.070  0.1311E+01  0.3998E+02
  19.080  0.1313E+01  0.3999E+02
  19.090  0.1317E+01  0.4000E+02
  19.100  0.1320E+01  0.4002E+02
  19.110  0.1325E+01  0.4003E+02
  19.120  0.1329E+01  0.4004E+02
  19.130  0.1334E+01  0.4006E+02
  19.140  0.1341E+01  0.4007E+02
  19.150  0.1347E+01  0.4008E+02
  19.160  0.1353E+01  0.4010E+02
  19.170  0.1360E+01  0.4011E+02
  19.180  0.1366E+01  0.4012E+02
  19.190  0.1373E+01  0.4014E+02
  19.200  0.1379E+01  0.4015E+02
  19.210  0.1385E+01  0.4017E+02
  19.220  0.1387E+01  0.4018E+02
  19.230  0.1391E+01  0.4019E+02
  19.240  0.1394E+01  0.4021E+02
  19.250  0.1399E+01  0.4022E+02
  19.260  0.1404E+01  0.4024E+02
  19.270  0.1410E+01  0.4025E+02
  19.280  0.1416E+01  0.4026E+02
  19.290  0.1423E+01  0.4028E+02
  19.300  0.1430E+01  0.4029E+02
  19.310  0.1437E+01  0.4031E+02
  19.320  0.1442E+01  0.4032E+02
  19.330  0.1447E+01  0.4034E+02
  19.340  0.1453E+01  0.4035E+02
  19.350  0.1462E+01  0.4036E+02
  19.360  0.1479E+01  0.4038E+02
  19.370  0.1492E+01  0.4039E+02
  19.380  0.1513E+01  0.4041E+02
  19.390  0.1519E+01  0.4042E+02
  19.400  0.1522E+01  0.4044E+02
  19.410  0.1529E+01  0.4045E+02
  19.420  0.1531E+01  0.4047E+02
  19.430  0.1534E+01  0.4049E+02
  19.440  0.1538E+01  0.4050E+02
  19.450  0.1542E+01  0.4052E+02
  19.460  0.1546E+01  0.4053E+02
  19.470  0.1556E+01  0.4055E+02
  19.480  0.1560E+01  0.4056E+02
  19.490  0.1566E+01  0.4058E+02
  19.500  0.1572E+01  0.4059E+02
  19.510  0.1579E+01  0.4061E+02
  19.520  0.1590E+01  0.4063E+02
  19.530  0.1593E+01  0.4064E+02
  19.540  0.1589E+01  0.4066E+02
  19.550  0.1584E+01  0.4067E+02
  19.560  0.1583E+01  0.4069E+02
  19.570  0.1583E+01  0.4070E+02
  19.580  0.1584E+01  0.4072E+02
  19.590  0.1580E+01  0.4074E+02
  19.600  0.1574E+01  0.4075E+02
  19.610  0.1570E+01  0.4077E+02
  19.620  0.1567E+01  0.4078E+02
  19.630  0.1564E+01  0.4080E+02
  19.640  0.1562E+01  0.4082E+02
  19.650  0.1560E+01  0.4083E+02
  19.660  0.1557E+01  0.4085E+02
  19.670  0.1560E+01  0.4086E+02
  19.680  0.1563E+01  0.4088E+02
  19.690  0.1556E+01  0.4089E+02
  19.700  0.1554E+01  0.4091E+02
  19.710  0.1550E+01  0.4092E+02
  19.720  0.1544E+01  0.4094E+02
  19.730  0.1546E+01  0.4096E+02
  19.740  0.1546E+01  0.4097E+02
  19.750  0.1541E+01  0.4099E+02
  19.760  0.1539E+01  0.4100E+02
  19.770  0.1536E+01  0.4102E+02
  19.780  0.1530E+01  0.4103E+02
  19.790  0.1524E+01  0.4105E+02
  19.800  0.1523E+01  0.4106E+02
  19.810  0.1520E+01  0.4108E+02
  19.820  0.1519E+01  0.4109E+02
  19.830  0.1526E+01  0.4111E+02
  19.840  0.1532E+01  0.4112E+02
  19.850  0.1537E+01  0.4114E+02
  19.860  0.1542E+01  0.4115E+02
  19.870  0.1540E+01  0.4117E+02
  19.880  0.1536E+01  0.4119E+02
  19.890  0.1537E+01  0.4120E+02
  19.900  0.1543E+01  0.4122E+02
  19.910  0.1545E+01  0.4123E+02
  19.920  0.1546E+01  0.4125E+02
  19.930  0.1547E+01  0.4126E+02
  19.940  0.1547E+01  0.4128E+02
  19.950  0.1549E+01  0.4129E+02
  19.960  0.1550E+01  0.4131E+02
  19.970  0.1552E+01  0.4132E+02
  19.980  0.1555E+01  0.4134E+02
  19.990  0.1559E+01  0.4136E+02
  20.000  0.1561E+01  0.4137E+02
  20.010  0.1564E+01  0.4139E+02
  20.020  0.1566E+01  0.4140E+02
  20.030  0.1568E+01  0.4142E+02
  20.040  0.1575E+01  0.4143E+02
  20.050  0.1586E+01  0.4145E+02
  20.060  0.1597E+01  0.4147E+02
  20.070  0.1610E+01  0.4148E+02
  20.080  0.1619E+01  0.4150E+02
  20.090  0.1620E+01  0.4151E+02
  20.100  0.1617E+01  0.4153E+02
  20.110  0.1623E+01  0.4155E+02
  20.120  0.1618E+01  0.4156E+02
  20.130  0.1617E+01  0.4158E+02
  20.140  0.1617E+01  0.4159E+02
  20.150  0.1618E+01  0.4161E+02
  20.160  0.1619E+01  0.4163E+02
  20.170  0.1623E+01  0.4164E+02
  20.180  0.1630E+01  0.4166E+02
  20.190  0.1631E+01  0.4168E+02
  20.200  0.1644E+01  0.4169E+02
  20.210  0.1658E+01  0.4171E+02
  20.220  0.1662E+01  0.4173E+02
  20.230  0.1665E+01  0.4174E+02
  20.240  0.1672E+01  0.4176E+02
  20.250  0.1680E+01  0.4178E+02
  20.260  0.1685E+01  0.4179E+02
  20.270  0.1687E+01  0.4181E+02
  20.280  0.1691E+01  0.4183E+02
  20.290  0.1694E+01  0.4184E+02
  20.300  0.1696E+01  0.4186E+02
  20.310  0.1697E+01  0.4188E+02
  20.320  0.1695E+01  0.4189E+02
  20.330  0.1720E+01  0.4191E+02
  20.340  0.1709E+01  0.4193E+02
  20.350  0.1700E+01  0.4194E+02
  20.360  0.1696E+01  0.4196E+02
  20.370  0.1694E+01  0.4198E+02
  20.380  0.1690E+01  0.4200E+02
  20.390  0.1691E+01  0.4201E+02
  20.400  0.1688E+01  0.4203E+02
  20.410  0.1683E+01  0.4205E+02
  20.420  0.1683E+01  0.4206E+02
  20.430  0.1678E+01  0.4208E+02
  20.440  0.1676E+01  0.4210E+02
  20.450  0.1661E+01  0.4211E+02
  20.460  0.1653E+01  0.4213E+02
  20.470  0.1648E+01  0.4215E+02
  20.480  0.1647E+01  0.4216E+02
  20.490  0.1646E+01  0.4218E+02
  20.500  0.1655E+01  0.4220E+02
  20.510  0.1659E+01  0.4221E+02
  20.520  0.1678E+01  0.4223E+02
  20.530  0.1694E+01  0.4225E+02
  20.540  0.1711E+01  0.4226E+02
  20.550  0.1729E+01  0.4228E+02
  20.560  0.1719E+01  0.4230E+02
  20.570  0.1725E+01  0.4231E+02
  20.580  0.1738E+01  0.4233E+02
  20.590  0.1754E+01  0.4235E+02
  20.600  0.1761E+01  0.4237E+02
  20.610  0.1769E+01  0.4238E+02
  20.620  0.1791E+01  0.4240E+02
  20.630  0.1817E+01  0.4242E+02
  20.640  0.1855E+01  0.4244E+02
  20.650  0.1869E+01  0.4246E+02
  20.660  0.1880E+01  0.4248E+02
  20.670  0.1882E+01  0.4250E+02
  20.680  0.1876E+01  0.4251E+02
  20.690  0.1902E+01  0.4253E+02
  20.700  0.1926E+01  0.4255E+02
  20.710  0.1957E+01  0.4257E+02
  20.720  0.1990E+01  0.4259E+02
  20.730  0.2011E+01  0.4261E+02
  20.740  0.2014E+01  0.4263E+02
  20.750  0.2022E+01  0.4265E+02
  20.760  0.2030E+01  0.4267E+02
  20.770  0.2045E+01  0.4269E+02
  20.780  0.2059E+01  0.4271E+02
  20.790  0.2071E+01  0.4273E+02
  20.800  0.2088E+01  0.4275E+02
  20.810  0.2106E+01  0.4278E+02
  20.820  0.2119E+01  0.4280E+02
  20.830  0.2123E+01  0.4282E+02
  20.840  0.2118E+01  0.4284E+02
  20.850  0.2108E+01  0.4286E+02
  20.860  0.2094E+01  0.4288E+02
  20.870  0.2083E+01  0.4290E+02
  20.880  0.2071E+01  0.4292E+02
  20.890  0.2061E+01  0.4294E+02
  20.900  0.2040E+01  0.4296E+02
  20.910  0.2023E+01  0.4298E+02
  20.920  0.2011E+01  0.4300E+02
  20.930  0.2002E+01  0.4302E+02
  20.940  0.1992E+01  0.4304E+02
  20.950  0.1983E+01  0.4306E+02
  20.960  0.1972E+01  0.4308E+02
  20.970  0.1964E+01  0.4310E+02
  20.980  0.1958E+01  0.4312E+02
  20.990  0.1952E+01  0.4314E+02
  21.000  0.1943E+01  0.4316E+02
  21.010  0.1934E+01  0.4318E+02
  21.020  0.1935E+01  0.4320E+02
  21.030  0.1923E+01  0.4322E+02
  21.040  0.1905E+01  0.4324E+02
  21.050  0.1896E+01  0.4326E+02
  21.060  0.1886E+01  0.4328E+02
  21.070  0.1876E+01  0.4330E+02
  21.080  0.1867E+01  0.4331E+02
  21.090  0.1856E+01  0.4333E+02
  21.100  0.1845E+01  0.4335E+02
  21.110  0.1833E+01  0.4337E+02
  21.120  0.1818E+01  0.4339E+02
  21.130  0.1804E+01  0.4341E+02
  21.140  0.1786E+01  0.4342E+02
  21.150  0.1773E+01  0.4344E+02
  21.160  0.1761E+01  0.4346E+02
  21.170  0.1752E+01  0.4348E+02
  21.180  0.1743E+01  0.4350E+02
  21.190  0.1737E+01  0.4351E+02
  21.200  0.1729E+01  0.4353E+02
  21.210  0.1728E+01  0.4355E+02
  21.220  0.1719E+01  0.4356E+02
  21.230  0.1714E+01  0.4358E+02
  21.240  0.1710E+01  0.4360E+02
  21.250  0.1708E+01  0.4362E+02
  21.260  0.1720E+01  0.4363E+02
  21.270  0.1708E+01  0.4365E+02
  21.280  0.1693E+01  0.4367E+02
  21.290  0.1687E+01  0.4368E+02
  21.300  0.1687E+01  0.4370E+02
  21.310  0.1690E+01  0.4372E+02
  21.320  0.1693E+01  0.4373E+02
  21.330  0.1696E+01  0.4375E+02
  21.340  0.1699E+01  0.4377E+02
  21.350  0.1705E+01  0.4379E+02
  21.360  0.1712E+01  0.4380E+02
  21.370  0.1719E+01  0.4382E+02
  21.380  0.1730E+01  0.4384E+02
  21.390  0.1736E+01  0.4385E+02
  21.400  0.1744E+01  0.4387E+02
  21.410  0.1752E+01  0.4389E+02
  21.420  0.1758E+01  0.4391E+02
  21.430  0.1767E+01  0.4392E+02
  21.440  0.1775E+01  0.4394E+02
  21.450  0.1785E+01  0.4396E+02
  21.460  0.1797E+01  0.4398E+02
  21.470  0.1813E+01  0.4400E+02
  21.480  0.1825E+01  0.4401E+02
  21.490  0.1835E+01  0.4403E+02
  21.500  0.1844E+01  0.4405E+02
  21.510  0.1852E+01  0.4407E+02
  21.520  0.1867E+01  0.4409E+02
  21.530  0.1884E+01  0.4411E+02
  21.540  0.1893E+01  0.4413E+02
  21.550  0.1894E+01  0.4414E+02
  21.560  0.1905E+01  0.4416E+02
  21.570  0.1911E+01  0.4418E+02
  21.580  0.1914E+01  0.4420E+02
  21.590  0.1917E+01  0.4422E+02
  21.600  0.1919E+01  0.4424E+02
  21.610  0.1922E+01  0.4426E+02
  21.620  0.1922E+01  0.4428E+02
  21.630  0.1919E+01  0.4430E+02
  21.640  0.1911E+01  0.4432E+02
  21.650  0.1908E+01  0.4434E+02
  21.660  0.1905E+01  0.4435E+02
  21.670  0.1901E+01  0.4437E+02
  21.680  0.1893E+01  0.4439E+02
  21.690  0.1886E+01  0.4441E+02
  21.700  0.1881E+01  0.4443E+02
  21.710  0.1877E+01  0.4445E+02
  21.720  0.1872E+01  0.4447E+02
  21.730  0.1862E+01  0.4449E+02
  21.740  0.1855E+01  0.4451E+02
  21.750  0.1852E+01  0.4452E+02
  21.760  0.1850E+01  0.4454E+02
  21.770  0.1851E+01  0.4456E+02
  21.780  0.1852E+01  0.4458E+02
  21.790  0.1859E+01  0.4460E+02
  21.800  0.1866E+01  0.4462E+02
  21.810  0.1885E+01  0.4464E+02
  21.820  0.1921E+01  0.4465E+02
  21.830  0.1954E+01  0.4467E+02
  21.840  0.1983E+01  0.4469E+02
  21.850  0.2023E+01  0.4471E+02
  21.860  0.2055E+01  0.4473E+02
  21.870  0.2057E+01  0.4475E+02
  21.880  0.2061E+01  0.4478E+02
  21.890  0.2067E+01  0.4480E+02
  21.900  0.2071E+01  0.4482E+02
  21.910  0.2071E+01  0.4484E+02
  21.920  0.2073E+01  0.4486E+02
  21.930  0.2082E+01  0.4488E+02
  21.940  0.2084E+01  0.4490E+02
  21.950  0.2053E+01  0.4492E+02
  21.960  0.2022E+01  0.4494E+02
  21.970  0.1989E+01  0.4496E+02
  21.980  0.1962E+01  0.4498E+02
  21.990  0.1935E+01  0.4500E+02
  22.000  0.1909E+01  0.4502E+02
  22.010  0.1878E+01  0.4504E+02
  22.020  0.1853E+01  0.4506E+02
  22.030  0.1828E+01  0.4508E+02
  22.040  0.1805E+01  0.4509E+02
  22.050  0.1785E+01  0.4511E+02
  22.060  0.1769E+01  0.4513E+02
  22.070  0.1752E+01  0.4515E+02
  22.080  0.1733E+01  0.4516E+02
  22.090  0.1719E+01  0.4518E+02
  22.100  0.1696E+01  0.4520E+02
  22.110  0.1658E+01  0.4522E+02
  22.120  0.1627E+01  0.4523E+02
  22.130  0.1601E+01  0.4525E+02
  22.140  0.1575E+01  0.4526E+02
  22.150  0.1544E+01  0.4528E+02
  22.160  0.1515E+01  0.4529E+02
  22.170  0.1500E+01  0.4531E+02
  22.180  0.1477E+01  0.4532E+02
  22.190  0.1458E+01  0.4534E+02
  22.200  0.1446E+01  0.4535E+02
  22.210  0.1429E+01  0.4537E+02
  22.220  0.1413E+01  0.4538E+02
  22.230  0.1396E+01  0.4540E+02
  22.240  0.1383E+01  0.4541E+02
  22.250  0.1364E+01  0.4542E+02
  22.260  0.1350E+01  0.4544E+02
  22.270  0.1337E+01  0.4545E+02
  22.280  0.1328E+01  0.4546E+02
  22.290  0.1321E+01  0.4548E+02
  22.300  0.1314E+01  0.4549E+02
  22.310  0.1305E+01  0.4550E+02
  22.320  0.1296E+01  0.4552E+02
  22.330  0.1296E+01  0.4553E+02
  22.340  0.1269E+01  0.4554E+02
  22.350  0.1269E+01  0.4556E+02
  22.360  0.1272E+01  0.4557E+02
  22.370  0.1280E+01  0.4558E+02
  22.380  0.1292E+01  0.4559E+02
  22.390  0.1305E+01  0.4561E+02
  22.400  0.1315E+01  0.4562E+02
  22.410  0.1324E+01  0.4563E+02
  22.420  0.1331E+01  0.4565E+02
  22.430  0.1346E+01  0.4566E+02
  22.440  0.1362E+01  0.4567E+02
  22.450  0.1380E+01  0.4569E+02
  22.460  0.1404E+01  0.4570E+02
  22.470  0.1425E+01  0.4571E+02
  22.480  0.1437E+01  0.4573E+02
  22.490  0.1445E+01  0.4574E+02
  22.500  0.1447E+01  0.4576E+02
  22.510  0.1440E+01  0.4577E+02
  22.520  0.1438E+01  0.4579E+02
  22.530  0.1430E+01  0.4580E+02
  22.540  0.1425E+01  0.4582E+02
  22.550  0.1423E+01  0.4583E+02
  22.560  0.1425E+01  0.4584E+02
  22.570  0.1430E+01  0.4586E+02
  22.580  0.1436E+01  0.4587E+02
  22.590  0.1442E+01  0.4589E+02
  22.600  0.1448E+01  0.4590E+02
  22.610  0.1461E+01  0.4592E+02
  22.620  0.1473E+01  0.4593E+02
  22.630  0.1487E+01  0.4595E+02
  22.640  0.1503E+01  0.4596E+02
  22.650  0.1520E+01  0.4598E+02
  22.660  0.1531E+01  0.4599E+02
  22.670  0.1542E+01  0.4601E+02
  22.680  0.1547E+01  0.4602E+02
  22.690  0.1551E+01  0.4604E+02
  22.700  0.1557E+01  0.4605E+02
  22.710  0.1565E+01  0.4607E+02
  22.720  0.1573E+01  0.4608E+02
  22.730  0.1582E+01  0.4610E+02
  22.740  0.1594E+01  0.4612E+02
  22.750  0.1608E+01  0.4613E+02
  22.760  0.1620E+01  0.4615E+02
  22.770  0.1632E+01  0.4616E+02
  22.780  0.1638E+01  0.4618E+02
  22.790  0.1642E+01  0.4620E+02
  22.800  0.1657E+01  0.4621E+02
  22.810  0.1666E+01  0.4623E+02
  22.820  0.1677E+01  0.4625E+02
  22.830  0.1693E+01  0.4626E+02
  22.840  0.1706E+01  0.4628E+02
  22.850  0.1715E+01  0.4630E+02
  22.860  0.1716E+01  0.4631E+02
  22.870  0.1732E+01  0.4633E+02
  22.880  0.1749E+01  0.4635E+02
  22.890  0.1765E+01  0.4637E+02
  22.900  0.1778E+01  0.4638E+02
  22.910  0.1800E+01  0.4640E+02
  22.920  0.1821E+01  0.4642E+02
  22.930  0.1841E+01  0.4644E+02
  22.940  0.1865E+01  0.4646E+02
  22.950  0.1882E+01  0.4648E+02
  22.960  0.1910E+01  0.4649E+02
  22.970  0.1929E+01  0.4651E+02
  22.980  0.1939E+01  0.4653E+02
  22.990  0.1960E+01  0.4655E+02
  23.000  0.1981E+01  0.4657E+02
  23.010  0.2010E+01  0.4659E+02
  23.020  0.2037E+01  0.4661E+02
  23.030  0.2025E+01  0.4663E+02
  23.040  0.2015E+01  0.4665E+02
  23.050  0.1998E+01  0.4667E+02
  23.060  0.1980E+01  0.4669E+02
  23.070  0.1958E+01  0.4671E+02
  23.080  0.1933E+01  0.4673E+02
  23.090  0.1902E+01  0.4675E+02
  23.100  0.1876E+01  0.4677E+02
  23.110  0.1848E+01  0.4679E+02
  23.120  0.1835E+01  0.4681E+02
  23.130  0.1828E+01  0.4683E+02
  23.140  0.1822E+01  0.4684E+02
  23.150  0.1823E+01  0.4686E+02
  23.160  0.1823E+01  0.4688E+02
  23.170  0.1820E+01  0.4690E+02
  23.180  0.1821E+01  0.4692E+02
  23.190  0.1821E+01  0.4694E+02
  23.200  0.1821E+01  0.4695E+02
  23.210  0.1814E+01  0.4697E+02
  23.220  0.1806E+01  0.4699E+02
  23.230  0.1796E+01  0.4701E+02
  23.240  0.1790E+01  0.4703E+02
  23.250  0.1777E+01  0.4704E+02
  23.260  0.1768E+01  0.4706E+02
  23.270  0.1765E+01  0.4708E+02
  23.280  0.1771E+01  0.4710E+02
  23.290  0.1781E+01  0.4711E+02
  23.300  0.1787E+01  0.4713E+02
  23.310  0.1784E+01  0.4715E+02
  23.320  0.1780E+01  0.4717E+02
  23.330  0.1785E+01  0.4719E+02
  23.340  0.1795E+01  0.4720E+02
  23.350  0.1807E+01  0.4722E+02
  23.360  0.1823E+01  0.4724E+02
  23.370  0.1843E+01  0.4726E+02
  23.380  0.1866E+01  0.4728E+02
  23.390  0.1882E+01  0.4730E+02
  23.400  0.1908E+01  0.4731E+02
  23.410  0.1935E+01  0.4733E+02
  23.420  0.1950E+01  0.4735E+02
  23.430  0.1956E+01  0.4737E+02
  23.440  0.1956E+01  0.4739E+02
  23.450  0.1955E+01  0.4741E+02
  23.460  0.1953E+01  0.4743E+02
  23.470  0.1957E+01  0.4745E+02
  23.480  0.1967E+01  0.4747E+02
  23.490  0.1956E+01  0.4749E+02
  23.500  0.1960E+01  0.4751E+02
  23.510  0.1966E+01  0.4753E+02
  23.520  0.1983E+01  0.4755E+02
  23.530  0.1996E+01  0.4757E+02
  23.540  0.2009E+01  0.4759E+02
  23.550  0.2017E+01  0.4761E+02
  23.560  0.2030E+01  0.4763E+02
  23.570  0.2034E+01  0.4765E+02
  23.580  0.2037E+01  0.4767E+02
  23.590  0.2045E+01  0.4769E+02
  23.600  0.2062E+01  0.4771E+02
  23.610  0.2056E+01  0.4773E+02
  23.620  0.2034E+01  0.4775E+02
  23.630  0.2020E+01  0.4777E+02
  23.640  0.2009E+01  0.4779E+02
  23.650  0.1991E+01  0.4781E+02
  23.660  0.1971E+01  0.4783E+02
  23.670  0.1957E+01  0.4785E+02
  23.680  0.1943E+01  0.4787E+02
  23.690  0.1931E+01  0.4789E+02
  23.700  0.1921E+01  0.4791E+02
  23.710  0.1904E+01  0.4793E+02
  23.720  0.1896E+01  0.4795E+02
  23.730  0.1899E+01  0.4797E+02
  23.740  0.1891E+01  0.4799E+02
  23.750  0.1884E+01  0.4800E+02
  23.760  0.1880E+01  0.4802E+02
  23.770  0.1873E+01  0.4804E+02
  23.780  0.1869E+01  0.4806E+02
  23.790  0.1857E+01  0.4808E+02
  23.800  0.1842E+01  0.4810E+02
  23.810  0.1833E+01  0.4812E+02
  23.820  0.1829E+01  0.4813E+02
  23.830  0.1823E+01  0.4815E+02
  23.840  0.1819E+01  0.4817E+02
  23.850  0.1813E+01  0.4819E+02
  23.860  0.1809E+01  0.4821E+02
  23.870  0.1807E+01  0.4823E+02
  23.880  0.1798E+01  0.4824E+02
  23.890  0.1792E+01  0.4826E+02
  23.900  0.1782E+01  0.4828E+02
  23.910  0.1779E+01  0.4830E+02
  23.920  0.1774E+01  0.4831E+02
  23.930  0.1770E+01  0.4833E+02
  23.940  0.1769E+01  0.4835E+02
  23.950  0.1778E+01  0.4837E+02
  23.960  0.1784E+01  0.4839E+02
  23.970  0.1792E+01  0.4840E+02
  23.980  0.1801E+01  0.4842E+02
  23.990  0.1801E+01  0.4844E+02
  24.000  0.1789E+01  0.4846E+02
  24.010  0.1789E+01  0.4848E+02
  24.020  0.1789E+01  0.4849E+02
  24.030  0.1787E+01  0.4851E+02
  24.040  0.1787E+01  0.4853E+02
  24.050  0.1792E+01  0.4855E+02
  24.060  0.1800E+01  0.4857E+02
  24.070  0.1804E+01  0.4858E+02
  24.080  0.1816E+01  0.4860E+02
  24.090  0.1825E+01  0.4862E+02
  24.100  0.1833E+01  0.4864E+02
  24.110  0.1842E+01  0.4866E+02
  24.120  0.1844E+01  0.4867E+02
  24.130  0.1838E+01  0.4869E+02
  24.140  0.1836E+01  0.4871E+02
  24.150  0.1838E+01  0.4873E+02
  24.160  0.1834E+01  0.4875E+02
  24.170  0.1826E+01  0.4877E+02
  24.180  0.1821E+01  0.4878E+02
  24.190  0.1823E+01  0.4880E+02
  24.200  0.1818E+01  0.4882E+02
  24.210  0.1816E+01  0.4884E+02
  24.220  0.1814E+01  0.4886E+02
  24.230  0.1813E+01  0.4888E+02
  24.240  0.1813E+01  0.4889E+02
  24.250  0.1805E+01  0.4891E+02
  24.260  0.1796E+01  0.4893E+02
  24.270  0.1788E+01  0.4895E+02
  24.280  0.1778E+01  0.4897E+02
  24.290  0.1766E+01  0.4898E+02
  24.300  0.1757E+01  0.4900E+02
  24.310  0.1756E+01  0.4902E+02
  24.320  0.1750E+01  0.4904E+02
  24.330  0.1742E+01  0.4905E+02
  24.340  0.1739E+01  0.4907E+02
  24.350  0.1739E+01  0.4909E+02
  24.360  0.1740E+01  0.4911E+02
  24.370  0.1739E+01  0.4912E+02
  24.380  0.1741E+01  0.4914E+02
  24.390  0.1742E+01  0.4916E+02
  24.400  0.1744E+01  0.4918E+02
  24.410  0.1746E+01  0.4919E+02
  24.420  0.1747E+01  0.4921E+02
  24.430  0.1749E+01  0.4923E+02
  24.440  0.1749E+01  0.4924E+02
  24.450  0.1746E+01  0.4926E+02
  24.460  0.1747E+01  0.4928E+02
  24.470  0.1748E+01  0.4930E+02
  24.480  0.1750E+01  0.4931E+02
  24.490  0.1755E+01  0.4933E+02
  24.500  0.1762E+01  0.4935E+02
  24.510  0.1772E+01  0.4937E+02
  24.520  0.1779E+01  0.4939E+02
  24.530  0.1788E+01  0.4940E+02
  24.540  0.1799E+01  0.4942E+02
  24.550  0.1809E+01  0.4944E+02
  24.560  0.1820E+01  0.4946E+02
  24.570  0.1831E+01  0.4948E+02
  24.580  0.1842E+01  0.4949E+02
  24.590  0.1854E+01  0.4951E+02
  24.600  0.1859E+01  0.4953E+02
  24.610  0.1860E+01  0.4955E+02
  24.620  0.1855E+01  0.4957E+02
  24.630  0.1853E+01  0.4959E+02
  24.640  0.1860E+01  0.4961E+02
  24.650  0.1864E+01  0.4962E+02
  24.660  0.1864E+01  0.4964E+02
  24.670  0.1865E+01  0.4966E+02
  24.680  0.1869E+01  0.4968E+02
  24.690  0.1875E+01  0.4970E+02
  24.700  0.1884E+01  0.4972E+02
  24.710  0.1894E+01  0.4974E+02
  24.720  0.1902E+01  0.4976E+02
  24.730  0.1910E+01  0.4977E+02
  24.740  0.1918E+01  0.4979E+02
  24.750  0.1921E+01  0.4981E+02
  24.760  0.1928E+01  0.4983E+02
  24.770  0.1921E+01  0.4985E+02
  24.780  0.1925E+01  0.4987E+02
  24.790  0.1925E+01  0.4989E+02
  24.800  0.1927E+01  0.4991E+02
  24.810  0.1929E+01  0.4993E+02
  24.820  0.1933E+01  0.4995E+02
  24.830  0.1940E+01  0.4997E+02
  24.840  0.1957E+01  0.4999E+02
  24.850  0.1965E+01  0.5001E+02
  24.860  0.1972E+01  0.5003E+02
  24.870  0.1980E+01  0.5005E+02
  24.880  0.1987E+01  0.5007E+02
  24.890  0.1987E+01  0.5009E+02
  24.900  0.1990E+01  0.5010E+02
  24.910  0.1990E+01  0.5012E+02
  24.920  0.1985E+01  0.5014E+02
  24.930  0.1976E+01  0.5016E+02
  24.940  0.1963E+01  0.5018E+02
  24.950  0.1954E+01  0.5020E+02
  24.960  0.1951E+01  0.5022E+02
  24.970  0.1950E+01  0.5024E+02
  24.980  0.1954E+01  0.5026E+02
  24.990  0.1959E+01  0.5028E+02
  25.000  0.1964E+01  0.5030E+02
